RamanShift:204		
0.351	-901.05	
4.587	-139.84	
8.82	-55.93	
13.049	-38.68	
17.275	-28.4	
21.497	-25.08	
25.716	-12.81	
29.931	-13.14	
34.142	-11.48	
38.351	-11.48	
42.555	-10.49	
46.756	-7.84	
50.954	-6.51	
55.148	-4.19	
59.339	-8.83	
63.527	-9.49	
67.71	-5.51	
71.891	-2.2	
76.068	-2.53	
80.241	-3.19	
84.411	-2.86	
88.578	-2.53	
92.741	0.79	
96.901	0.12	
101.057	0.12	
105.21	-0.21	
109.359	0.46	
113.505	3.44	
117.648	5.43	
121.787	5.1	
125.923	7.42	
130.055	4.77	
134.184	8.75	
138.31	10.07	
142.432	15.38	
146.551	8.75	
150.667	13.39	
154.779	14.72	
158.887	16.38	
162.993	15.38	
167.095	19.03	
171.193	19.69	
175.289	20.69	
179.381	22.68	
183.469	24.67	
187.554	25	
191.636	25.66	
195.715	25.33	
199.79	21.02	
203.862	27.32	
207.931	22.35	
211.996	22.68	
216.058	27.32	
220.116	25.99	
224.172	22.68	
228.224	21.35	
232.272	20.02	
236.318	24.67	
240.36	23.67	
244.399	21.35	
248.434	20.02	
252.466	22.68	
256.495	23.01	
260.521	20.36	
264.544	15.71	
268.563	21.68	
272.579	19.03	
276.591	19.69	
280.601	18.7	
284.607	15.71	
288.61	18.7	
292.609	20.02	
296.606	19.69	
300.599	16.04	
304.589	19.03	
308.575	18.7	
312.559	19.03	
316.539	16.38	
320.516	19.69	
324.49	19.03	
328.461	23.34	
332.428	13.39	
336.392	13.72	
340.353	18.03	
344.311	15.71	
348.266	14.39	
352.217	12.06	
356.165	11.73	
360.11	14.39	
364.052	23.34	
367.991	18.7	
371.926	15.71	
375.859	21.02	
379.788	23.34	
383.714	17.37	
387.637	19.69	
391.557	24.34	
395.473	34.62	
399.387	34.29	
403.297	42.25	
407.204	48.22	
411.108	48.55	
415.009	50.2	
418.907	35.28	
422.802	32.63	
426.693	30.97	
430.581	28.32	
434.467	27.32	
438.349	29.31	
442.228	26.66	
446.104	29.31	
449.977	31.96	
453.847	29.97	
457.713	33.29	
461.577	36.28	
465.438	41.91	
469.295	49.21	
473.149	59.49	
477.001	64.8	
480.849	65.46	
484.694	66.79	
488.536	52.53	
492.375	42.91	
496.211	42.24	
500.044	28.65	
503.874	26.66	
507.701	23.67	
511.525	17.7	
515.346	18.37	
519.163	20.36	
522.978	9.74	
526.79	16.04	
530.598	11.73	
534.404	23.67	
538.207	22.35	
542.006	22.01	
545.803	19.03	
549.596	22.01	
553.387	21.68	
557.175	24	
560.959	18.03	
564.741	14.05	
568.519	20.36	
572.295	16.38	
576.068	10.41	
579.837	13.39	
583.604	16.38	
587.368	22.01	
591.128	23.01	
594.886	19.69	
598.641	18.7	
602.393	25.66	
606.142	26.66	
609.887	33.62	
613.63	36.28	
617.37	27.98	
621.108	28.65	
624.842	22.01	
628.573	16.04	
632.301	19.69	
636.027	13.72	
639.749	21.02	
643.468	20.02	
647.185	19.69	
650.899	15.38	
654.609	20.36	
658.317	19.03	
662.022	22.01	
665.724	27.98	
669.423	29.31	
673.119	22.68	
676.813	21.02	
680.503	19.03	
684.191	18.37	
687.875	15.05	
691.557	15.05	
695.236	11.07	
698.912	9.08	
702.585	7.75	
706.256	15.38	
709.923	8.08	
713.588	3.11	
717.249	7.75	
720.908	6.76	
724.564	6.43	
728.217	5.1	
731.868	7.09	
735.515	5.1	
739.16	6.43	
742.801	9.41	
746.44	8.08	
750.076	9.41	
753.71	11.73	
757.34	10.07	
760.968	7.75	
764.593	5.1	
768.215	8.75	
771.834	14.72	
775.45	16.71	
779.064	16.38	
782.675	14.39	
786.283	17.7	
789.888	23.01	
793.49	21.68	
797.09	26.99	
800.686	31.3	
804.281	43.24	
807.872	55.84	
811.46	58.5	
815.046	62.14	
818.629	70.1	
822.209	63.8	
825.786	53.85	
829.361	60.49	
832.933	71.43	
836.502	82.71	
840.068	94.32	
843.632	105.59	
847.193	103.27	
850.751	95.97	
854.306	83.7	
857.859	84.03	
861.409	86.36	
864.956	92.66	
868.5	94.65	
872.042	102.94	
875.581	101.28	
879.117	113.88	
882.651	121.18	
886.182	108.58	
889.71	90	
893.235	74.42	
896.758	62.14	
900.278	55.84	
903.795	47.88	
907.31	44.57	
910.822	47.88	
914.331	48.22	
917.838	46.23	
921.341	46.23	
924.843	41.58	
928.341	30.64	
931.837	23.34	
935.33	22.01	
938.821	15.38	
942.308	13.72	
945.793	14.39	
949.276	13.39	
952.756	14.39	
956.233	11.4	
959.707	25.33	
963.179	22.01	
966.649	18.37	
970.115	21.68	
973.579	27.32	
977.04	29.31	
980.499	23.01	
983.955	20.69	
987.408	21.68	
990.859	21.02	
994.307	20.36	
997.753	26.66	
1001.196	25.99	
1004.636	25.66	
1008.074	25	
1011.509	28.98	
1014.941	32.96	
1018.371	43.57	
1021.798	42.58	
1025.223	51.53	
1028.645	51.53	
1032.064	57.83	
1035.481	71.43	
1038.896	74.75	
1042.307	73.42	
1045.716	81.38	
1049.123	83.37	
1052.527	80.39	
1055.928	83.37	
1059.327	85.03	
1062.723	82.04	
1066.117	67.12	
1069.508	71.43	
1072.897	64.13	
1076.283	58.16	
1079.666	57.83	
1083.047	54.85	
1086.425	58.5	
1089.801	56.18	
1093.174	48.55	
1096.545	49.87	
1099.913	50.87	
1103.279	60.49	
1106.642	52.2	
1110.002	49.54	
1113.36	43.9	
1116.716	36.28	
1120.069	34.29	
1123.419	27.32	
1126.767	23.67	
1130.113	8.42	
1133.456	13.72	
1136.796	11.4	
1140.134	13.39	
1143.47	9.74	
1146.802	3.77	
1150.133	5.1	
1153.461	6.76	
1156.786	8.08	
1160.109	5.43	
1163.43	7.42	
1166.748	6.09	
1170.063	8.75	
1173.376	10.41	
1176.687	8.08	
1179.995	9.74	
1183.3	13.06	
1186.603	9.08	
1189.904	10.41	
1193.202	15.71	
1196.498	17.7	
1199.791	19.69	
1203.082	20.36	
1206.37	26.99	
1209.656	20.36	
1212.94	27.65	
1216.221	24.34	
1219.499	24.34	
1222.775	26.33	
1226.049	25.66	
1229.32	24.34	
1232.589	26.33	
1235.856	34.62	
1239.12	37.93	
1242.381	29.31	
1245.64	33.95	
1248.897	34.29	
1252.151	34.29	
1255.403	30.31	
1258.652	34.62	
1261.9	37.27	
1265.144	31.96	
1268.386	35.61	
1271.626	32.63	
1274.864	30.31	
1278.099	29.64	
1281.331	23.67	
1284.562	29.31	
1287.789	24.34	
1291.015	18.37	
1294.238	22.68	
1297.459	22.35	
1300.677	22.01	
1303.893	15.05	
1307.106	20.36	
1310.318	19.36	
1313.526	19.03	
1316.733	18.37	
1319.937	17.37	
1323.139	17.7	
1326.338	8.42	
1329.535	11.73	
1332.73	18.7	
1335.922	9.08	
1339.112	14.72	
1342.3	10.41	
1345.485	11.4	
1348.668	12.06	
1351.848	13.06	
1355.027	19.03	
1358.203	15.38	
1361.376	7.75	
1364.547	14.05	
1367.716	7.75	
1370.883	18.37	
1374.047	5.43	
1377.209	8.08	
1380.369	11.07	
1383.526	8.42	
1386.681	10.41	
1389.834	6.09	
1392.984	12.06	
1396.132	12.4	
1399.278	10.74	
1402.421	7.42	
1405.562	6.09	
1408.701	10.07	
1411.838	17.37	
1414.972	11.73	
1418.104	13.06	
1421.234	13.72	
1424.361	19.69	
1427.486	19.03	
1430.609	18.7	
1433.73	15.05	
1436.848	13.39	
1439.964	15.38	
1443.078	22.01	
1446.189	31.63	
1449.299	34.95	
1452.405	39.92	
1455.51	47.88	
1458.613	52.2	
1461.713	50.87	
1464.811	51.2	
1467.906	44.9	
1471	35.94	
1474.091	21.35	
1477.18	20.69	
1480.267	7.75	
1483.351	4.77	
1486.433	0.46	
1489.513	2.11	
1492.591	-2.86	
1495.666	-5.85	
1498.74	-2.2	
1501.811	-7.17	
1504.879	-3.86	
1507.946	-6.84	
1511.01	-7.5	
1514.073	-11.15	
1517.132	-6.51	
1520.19	-9.16	
1523.246	-2.53	
1526.299	-7.5	
1529.35	-9.83	
1532.399	-4.19	
1535.446	-5.85	
1538.49	-12.81	
1541.532	-8.83	
1544.572	-8.5	
1547.61	-13.14	
1550.646	-7.17	
1553.68	-13.81	
1556.711	-6.84	
1559.74	-12.81	
1562.767	-7.84	
1565.792	-5.85	
1568.814	-12.15	
1571.835	-11.82	
1574.853	-10.82	
1577.869	-10.16	
1580.883	-14.14	
1583.895	-11.48	
1586.904	-10.82	
1589.912	-11.48	
1592.917	-11.82	
1595.92	-10.16	
1598.921	-11.48	
1601.92	-12.48	
1604.917	-12.81	
1607.911	-12.15	
1610.903	-16.46	
1613.894	-13.81	
1616.882	-9.83	
1619.868	-13.81	
1622.851	-11.15	
1625.833	-12.81	
1628.812	-12.48	
1631.79	-8.83	
1634.765	-8.17	
1637.738	-8.83	
1640.709	-13.14	
1643.678	-15.46	
1646.645	-9.49	
1649.609	-8.5	
1652.572	-14.8	
1655.532	-5.51	
1658.49	-6.84	
1661.447	-8.83	
1664.401	-6.51	
1667.353	-4.52	
1670.302	-4.19	
1673.25	-0.54	
1676.196	0.79	
1679.139	-0.54	
1682.081	1.78	
1685.02	3.11	
1687.957	1.45	
1690.893	8.42	
1693.826	6.76	
1696.757	7.09	
1699.686	12.73	
1702.612	15.05	
1705.537	7.75	
1708.46	12.4	
1711.38	3.77	
1714.299	2.11	
1717.215	4.1	
1720.13	4.77	
1723.042	2.11	
1725.952	1.12	
1728.86	-2.53	
1731.767	-7.84	
1734.671	-3.86	
1737.573	-2.2	
1740.473	-5.85	
1743.37	-5.51	
1746.266	-10.16	
1749.16	-6.18	
1752.052	-4.19	
1754.942	-6.18	
1757.829	-6.51	
1760.715	-5.18	
1763.598	-7.5	
1766.48	-9.49	
1769.36	-10.16	
1772.237	-8.17	
1775.112	-10.49	
1777.986	-12.81	
1780.857	-8.5	
1783.727	-12.48	
1786.594	-11.82	
1789.459	-8.83	
1792.323	-7.5	
1795.184	-12.81	
1798.043	-11.48	
1800.9	-10.16	
1803.756	-9.83	
1806.609	-7.5	
1809.46	-12.15	
1812.309	-15.13	
1815.157	-11.15	
1818.002	-11.82	
1820.845	-5.51	
1823.686	-10.82	
1826.526	-14.14	
1829.363	-11.82	
1832.198	-11.15	
1835.031	-11.82	
1837.863	-8.17	
1840.692	-11.82	
1843.519	-12.81	
1846.345	-11.48	
1849.168	-14.14	
1851.989	-11.15	
1854.809	-8.5	
1857.626	-5.51	
1860.441	-8.83	
1863.255	-11.82	
1866.066	-7.5	
1868.876	-15.13	
1871.684	-9.49	
1874.489	-14.14	
1877.293	-7.84	
1880.095	-11.15	
1882.894	-12.48	
1885.692	-7.17	
1888.488	-8.5	
1891.282	-12.15	
1894.074	-8.5	
1896.864	-10.82	
1899.652	-10.82	
1902.438	-12.48	
1905.222	-16.13	
1908.004	-10.49	
1910.785	-9.16	
1913.563	-12.15	
1916.339	-7.17	
1919.114	-8.5	
1921.886	-9.49	
1924.657	-13.47	
1927.426	-10.16	
1930.193	-10.82	
1932.957	-11.48	
1935.72	-13.81	
1938.481	-10.49	
1941.24	-10.49	
1943.998	-7.84	
1946.753	-10.49	
1949.506	-6.51	
1952.258	-9.49	
1955.007	-10.49	
1957.755	-10.49	
1960.501	-12.81	
1963.245	-7.84	
1965.986	-9.16	
1968.726	-6.18	
1971.465	-7.17	
1974.201	-9.49	
1976.935	-12.48	
1979.668	-7.17	
1982.398	-6.18	
1985.127	-5.18	
1987.854	-6.84	
1990.579	-7.5	
1993.302	-9.49	
1996.023	-3.52	
1998.742	-7.17	
2001.46	-8.5	
2004.175	-7.17	
2006.889	-4.52	
2009.6	-5.18	
2012.31	-1.87	
2015.018	-6.18	
2017.725	-4.85	
2020.429	-6.51	
2023.131	-6.51	
2025.832	-5.51	
2028.531	-5.51	
2031.228	-7.5	
2033.923	-8.83	
2036.616	-7.17	
2039.307	-6.84	
2041.997	-5.85	
2044.684	-3.86	
2047.37	-8.5	
2050.054	-8.83	
2052.736	-5.85	
2055.416	-6.18	
2058.095	-8.5	
2060.771	-4.52	
2063.446	-6.18	
2066.119	-4.85	
2068.79	-7.84	
2071.459	-8.17	
2074.127	-2.86	
2076.792	-4.85	
2079.456	-9.83	
2082.118	-5.85	
2084.778	-7.5	
2087.436	-9.16	
2090.093	-9.16	
2092.747	-6.51	
2095.4	-4.52	
2098.051	-5.85	
2100.7	-5.51	
2103.348	-2.86	
2105.993	-2.53	
2108.637	-4.52	
2111.279	-6.18	
2113.919	-5.85	
2116.558	-6.18	
2119.194	-5.18	
2121.829	-1.53	
2124.462	-7.17	
2127.093	-1.53	
2129.723	-3.52	
2132.35	-1.87	
2134.976	-4.52	
2137.6	-3.52	
2140.223	-2.53	
2142.843	-0.54	
2145.462	-3.52	
2148.079	-5.18	
2150.694	-8.83	
2153.307	-4.85	
2155.919	-4.85	
2158.528	-2.86	
2161.137	-6.18	
2163.743	-6.84	
2166.347	-7.5	
2168.95	-6.18	
2171.551	-4.85	
2174.15	-7.84	
2176.748	-3.19	
2179.343	0.12	
2181.937	0.12	
2184.529	-4.19	
2187.12	-2.53	
2189.708	-5.85	
2192.295	-2.86	
2194.88	-0.87	
2197.464	-3.52	
2200.045	-2.53	
2202.625	-4.52	
2205.203	-3.19	
2207.78	-2.86	
2210.355	-4.85	
2212.928	-5.85	
2215.499	-3.52	
2218.068	-3.86	
2220.636	-2.86	
2223.202	-3.19	
2225.766	-6.18	
2228.329	-6.84	
2230.889	-4.52	
2233.449	-2.53	
2236.006	-1.2	
2238.562	-0.87	
2241.115	-4.19	
2243.668	-6.18	
2246.218	-3.19	
2248.767	-2.86	
2251.314	-2.53	
2253.859	-3.86	
2256.403	-4.52	
2258.945	-7.84	
2261.485	-2.53	
2264.023	-2.53	
2266.56	-5.85	
2269.095	-5.18	
2271.629	-3.19	
2274.16	-1.2	
2276.69	-1.2	
2279.219	-5.51	
2281.745	-4.85	
2284.27	-3.52	
2286.793	-5.18	
2289.315	-1.87	
2291.835	-5.85	
2294.353	-3.52	
2296.869	-0.54	
2299.384	-7.17	
2301.897	-3.86	
2304.408	-6.18	
2306.918	-1.53	
2309.426	-5.85	
2311.932	-3.86	
2314.437	-5.18	
2316.94	-3.52	
2319.441	-4.52	
2321.941	-1.2	
2324.439	-1.87	
2326.935	-3.86	
2329.43	-2.53	
2331.923	-4.85	
2334.414	-2.2	
2336.904	-7.5	
2339.392	-1.87	
2341.878	-2.53	
2344.363	-0.21	
2346.846	-3.19	
2349.328	-6.18	
2351.807	-1.2	
2354.285	-3.19	
2356.762	-3.19	
2359.237	-3.19	
2361.71	-6.51	
2364.181	-4.19	
2366.651	-5.85	
2369.119	-6.18	
2371.586	-2.2	
2374.051	-1.2	
2376.514	-4.19	
2378.976	-5.51	
2381.436	-2.86	
2383.894	0.46	
2386.351	-4.19	
2388.806	-6.84	
2391.259	-6.18	
2393.711	-0.87	
2396.161	-0.54	
2398.61	-8.17	
2401.057	-2.86	
2403.502	-7.84	
2405.946	-6.51	
2408.388	-6.51	
2410.829	-2.53	
2413.268	-7.5	
2415.705	-6.84	
2418.141	-3.86	
2420.575	-6.18	
2423.007	-2.86	
2425.438	-3.52	
2427.867	-6.84	
2430.295	-5.18	
2432.721	-7.84	
2435.145	-8.17	
2437.568	-6.51	
2439.989	-7.84	
2442.409	-4.19	
2444.827	-5.51	
2447.243	-6.18	
2449.658	-5.85	
2452.071	-7.84	
2454.483	-6.84	
2456.893	-10.82	
2459.302	-6.84	
2461.709	-10.49	
2464.114	-3.86	
2466.518	-7.17	
2468.92	-10.49	
2471.32	-6.18	
2473.719	-5.18	
2476.117	-4.85	
2478.512	-5.51	
2480.907	-5.18	
2483.299	-3.52	
2485.691	-5.51	
2488.08	-5.85	
2490.468	-4.85	
2492.854	-7.17	
2495.239	-8.17	
2497.623	-3.19	
2500.004	-7.5	
2502.384	-6.51	
2504.763	-4.85	
2507.14	-2.53	
2509.515	-4.85	
2511.889	-6.51	
2514.262	-4.52	
2516.633	-2.53	
2519.002	-8.5	
2521.369	-5.51	
2523.736	-8.5	
2526.1	-5.85	
2528.463	-4.19	
2530.825	-5.18	
2533.185	-6.84	
2535.543	-4.85	
2537.9	-6.84	
2540.255	-3.19	
2542.609	-7.5	
2544.961	-5.85	
2547.312	-1.87	
2549.661	-6.84	
2552.009	-9.49	
2554.355	-6.84	
2556.7	-5.85	
2559.043	-4.85	
2561.384	-6.51	
2563.724	-5.18	
2566.063	-5.51	
2568.4	-3.86	
2570.735	-4.19	
2573.069	-8.83	
2575.402	-8.17	
2577.733	-4.85	
2580.062	-7.84	
2582.39	-7.17	
2584.716	-7.5	
2587.041	-5.18	
2589.364	-7.5	
2591.686	-11.15	
2594.006	-6.84	
2596.325	-7.84	
2598.643	-6.18	
2600.958	-4.85	
2603.273	-5.51	
2605.585	-8.83	
2607.897	-8.5	
2610.206	-5.51	
2612.515	-4.19	
2614.822	-7.17	
2617.127	-8.5	
2619.431	-8.17	
2621.733	-6.18	
2624.034	-7.17	
2626.333	-2.53	
2628.631	-6.18	
2630.927	-1.53	
2633.222	-6.18	
2635.515	-9.49	
2637.807	-7.17	
2640.098	-6.18	
2642.387	-4.85	
2644.674	-5.18	
2646.96	-6.84	
2649.245	-5.85	
2651.528	-4.85	
2653.809	-3.19	
2656.089	-6.84	
2658.368	-6.51	
2660.645	-1.87	
2662.921	-6.18	
2665.195	-3.86	
2667.468	-3.86	
2669.739	-4.19	
2672.009	-6.18	
2674.277	-3.86	
2676.544	-4.52	
2678.809	-8.5	
2681.073	-4.85	
2683.336	-0.21	
2685.597	-5.51	
2687.856	-4.85	
2690.115	-1.53	
2692.371	-6.84	
2694.626	-6.51	
2696.88	-6.18	
2699.133	-0.87	
2701.383	-5.85	
2703.633	-5.18	
2705.881	-4.85	
2708.127	-3.19	
2710.373	-0.87	
2712.616	-3.19	
2714.859	-2.2	
2717.099	-3.86	
2719.339	-3.86	
2721.577	-1.2	
2723.813	-3.19	
2726.048	-0.21	
2728.282	0.12	
2730.514	-0.54	
2732.745	-1.53	
2734.974	-2.53	
2737.202	-4.19	
2739.428	-4.19	
2741.653	-2.2	
2743.877	0.79	
2746.099	-0.54	
2748.32	-3.86	
2750.539	-0.87	
2752.757	-2.53	
2754.974	-1.53	
2757.189	-0.87	
2759.403	-1.53	
2761.615	-0.87	
2763.826	-0.21	
2766.035	0.46	
2768.243	-0.87	
2770.45	-0.21	
2772.655	-1.87	
2774.859	-0.54	
2777.062	-0.87	
2779.263	0.12	
2781.462	0.12	
2783.66	1.12	
2785.857	-1.53	
2788.053	1.78	
2790.247	3.77	
2792.439	1.45	
2794.631	-2.2	
2796.82	-0.21	
2799.009	1.78	
2801.196	0.12	
2803.382	-0.87	
2805.566	-0.87	
2807.749	1.12	
2809.93	3.11	
2812.11	2.78	
2814.289	1.78	
2816.466	3.44	
2818.642	4.44	
2820.817	2.45	
2822.99	7.42	
2825.162	7.42	
2827.332	3.11	
2829.502	6.09	
2831.669	9.74	
2833.836	6.76	
2836	8.08	
2838.164	8.75	
2840.326	9.41	
2842.487	10.41	
2844.647	12.06	
2846.805	10.41	
2848.961	12.73	
2851.117	16.04	
2853.271	16.38	
2855.423	13.06	
2857.575	15.05	
2859.725	15.71	
2861.873	21.02	
2864.02	17.7	
2866.166	23.34	
2868.311	22.01	
2870.454	27.98	
2872.596	25.33	
2874.736	29.31	
2876.875	26.99	
2879.013	29.97	
2881.149	30.64	
2883.284	33.95	
2885.418	36.27	
2887.551	35.94	
2889.682	38.93	
2891.811	40.92	
2893.94	35.94	
2896.067	37.93	
2898.192	33.29	
2900.317	34.62	
2902.439	36.61	
2904.561	37.93	
2906.681	32.29	
2908.8	35.94	
2910.918	31.96	
2913.034	33.62	
2915.149	37.6	
2917.263	35.94	
2919.375	36.61	
2921.486	35.28	
2923.596	38.93	
2925.704	41.58	
2927.811	41.58	
2929.917	42.24	
2932.021	47.55	
2934.124	48.88	
2936.226	48.21	
2938.327	49.54	
2940.426	41.58	
2942.524	48.21	
2944.62	40.59	
2946.715	41.25	
2948.809	35.61	
2950.902	39.92	
2952.993	37.27	
2955.083	35.61	
2957.171	37.27	
2959.259	31.96	
2961.345	28.65	
2963.429	24.34	
2965.513	26.66	
2967.595	24	
2969.676	24.67	
2971.755	21.68	
2973.833	22.01	
2975.91	19.69	
2977.986	17.04	
2980.06	15.05	
2982.133	14.05	
2984.205	15.71	
2986.275	14.39	
2988.345	14.39	
2990.412	4.77	
2992.479	8.08	
2994.544	5.43	
2996.608	6.09	
2998.671	9.41	
3000.732	3.44	
3002.792	6.43	
3004.851	0.79	
3006.909	3.44	
3008.965	0.79	
3011.02	5.43	
3013.074	5.1	
3015.126	2.45	
3017.177	6.43	
3019.227	2.11	
3021.276	4.44	
3023.323	2.11	
3025.369	3.44	
3027.414	2.45	
3029.458	1.12	
3031.5	2.78	
3033.541	3.77	
3035.581	0.46	
3037.619	2.11	
3039.656	-0.54	
3041.692	1.45	
3043.727	0.79	
3045.76	0.46	
3047.793	0.79	
3049.824	-3.52	
3051.853	-3.19	
3053.882	1.78	
3055.909	0.79	
