RamanShift:204		
0.351	-605.08	
4.587	-67.79	
8.82	-34.95	
13.049	-21.68	
17.275	-14.39	
21.497	-7.75	
25.716	-7.09	
29.931	-7.75	
34.142	-6.76	
38.351	-6.43	
42.555	-4.44	
46.756	-1.78	
50.954	-2.78	
55.148	-3.77	
59.339	-3.11	
63.527	-1.45	
67.71	-2.45	
71.891	-1.45	
76.068	-2.11	
80.241	0.87	
84.411	3.19	
88.578	2.53	
92.741	3.19	
96.901	5.51	
101.057	7.84	
105.21	10.16	
109.359	11.48	
113.505	10.16	
117.648	15.13	
121.787	18.12	
125.923	15.46	
130.055	22.1	
134.184	25.41	
138.31	25.41	
142.432	29.39	
146.551	31.71	
150.667	35.03	
154.779	37.02	
158.887	42.99	
162.993	43.99	
167.095	41	
171.193	47.3	
175.289	51.95	
179.381	49.96	
183.469	51.61	
187.554	51.28	
191.636	50.29	
195.715	47.97	
199.79	55.26	
203.862	43.32	
207.931	44.32	
211.996	44.98	
216.058	41	
220.116	36.36	
224.172	40.34	
228.224	35.03	
232.272	41.66	
236.318	25.41	
240.36	29.39	
244.399	25.41	
248.434	29.06	
252.466	20.44	
256.495	23.42	
260.521	18.12	
264.544	15.8	
268.563	21.77	
272.579	17.79	
276.591	21.43	
280.601	11.82	
284.607	17.45	
288.61	20.11	
292.609	21.1	
296.606	17.45	
300.599	14.14	
304.589	17.12	
308.575	13.47	
312.559	19.44	
316.539	22.1	
320.516	20.77	
324.49	17.12	
328.461	28.4	
332.428	25.75	
336.392	29.72	
340.353	28.73	
344.311	25.08	
348.266	25.08	
352.217	28.4	
356.165	23.76	
360.11	22.43	
364.052	18.12	
367.991	15.46	
371.926	17.79	
375.859	12.15	
379.788	13.81	
383.714	9.16	
387.637	8.17	
391.557	16.13	
395.473	13.14	
399.387	10.82	
403.297	14.47	
407.204	8.5	
411.108	5.51	
415.009	5.51	
418.907	13.14	
422.802	15.46	
426.693	21.1	
430.581	19.78	
434.467	21.1	
438.349	34.7	
442.228	39.67	
446.104	45.31	
449.977	43.32	
453.847	40.67	
457.713	36.69	
461.577	30.72	
465.438	32.05	
469.295	37.02	
473.149	35.69	
477.001	39.34	
480.849	33.37	
484.694	29.72	
488.536	24.09	
492.375	23.75	
496.211	18.78	
500.044	21.43	
503.874	26.08	
507.701	23.42	
511.525	28.07	
515.346	28.07	
519.163	28.73	
522.978	28.73	
526.79	22.43	
530.598	16.79	
534.404	19.78	
538.207	17.12	
542.006	8.17	
545.803	18.78	
549.596	13.47	
553.387	11.48	
557.175	19.44	
560.959	17.45	
564.741	21.77	
568.519	21.77	
572.295	24.42	
576.068	26.74	
579.837	31.38	
583.604	36.69	
587.368	43.99	
591.128	54.27	
594.886	57.58	
598.641	58.91	
602.393	70.19	
606.142	78.48	
609.887	88.76	
613.63	80.8	
617.37	84.12	
621.108	67.2	
624.842	51.28	
628.573	43.99	
632.301	36.36	
636.027	22.76	
639.749	19.78	
643.468	18.78	
647.185	17.12	
650.899	5.18	
654.609	15.46	
658.317	6.51	
662.022	9.49	
665.724	11.82	
669.423	7.17	
673.119	7.17	
676.813	11.15	
680.503	8.83	
684.191	5.18	
687.875	5.85	
691.557	9.49	
695.236	6.51	
698.912	12.48	
702.585	10.82	
706.256	8.5	
709.923	7.84	
713.588	9.16	
717.249	0.87	
720.908	5.85	
724.564	3.86	
728.217	6.84	
731.868	6.84	
735.515	6.18	
739.16	5.18	
742.801	9.49	
746.44	7.84	
750.076	12.48	
753.71	5.51	
757.34	9.49	
760.968	7.17	
764.593	8.17	
768.215	6.51	
771.834	2.2	
775.45	10.82	
779.064	8.17	
782.675	8.5	
786.283	11.82	
789.888	17.79	
793.49	12.81	
797.09	17.45	
800.686	14.8	
804.281	12.48	
807.872	24.09	
811.46	24.42	
815.046	33.04	
818.629	32.05	
822.209	34.37	
825.786	38.35	
829.361	41.33	
832.933	55.26	
836.502	77.82	
840.068	90.42	
843.632	133.87	
847.193	168.03	
850.751	220.44	
854.306	269.86	
857.859	280.8	
861.409	295.73	
864.956	292.08	
868.5	300.71	
872.042	319.28	
875.581	340.51	
879.117	384.96	
882.651	392.25	
886.182	375.67	
889.71	323.26	
893.235	255.59	
896.758	170.35	
900.278	115.29	
903.795	78.48	
907.31	56.92	
910.822	43.65	
914.331	32.71	
917.838	30.39	
921.341	28.73	
924.843	24.42	
928.341	28.4	
931.837	19.11	
935.33	19.44	
938.821	16.46	
942.308	16.13	
945.793	16.46	
949.276	18.12	
952.756	22.43	
956.233	16.13	
959.707	12.81	
963.179	17.12	
966.649	18.12	
970.115	15.8	
973.579	17.45	
977.04	18.78	
980.499	22.1	
983.955	21.1	
987.408	20.44	
990.859	24.42	
994.307	27.07	
997.753	29.72	
1001.196	43.32	
1004.636	45.64	
1008.074	45.31	
1011.509	51.28	
1014.941	51.95	
1018.371	56.92	
1021.798	59.24	
1025.223	66.21	
1028.645	70.85	
1032.064	71.85	
1035.481	71.18	
1038.896	76.16	
1042.307	77.48	
1045.716	77.15	
1049.123	77.15	
1052.527	69.52	
1055.928	72.51	
1059.327	69.19	
1062.723	80.47	
1066.117	74.83	
1069.508	78.81	
1072.897	85.78	
1076.283	93.4	
1079.666	106.34	
1083.047	103.69	
1086.425	98.38	
1089.801	85.44	
1093.174	64.22	
1096.545	48.96	
1099.913	32.71	
1103.279	28.07	
1106.642	21.43	
1110.002	23.76	
1113.36	18.78	
1116.716	19.11	
1120.069	10.82	
1123.419	19.78	
1126.767	14.14	
1130.113	9.83	
1133.456	14.14	
1136.796	12.81	
1140.134	14.8	
1143.47	7.84	
1146.802	13.14	
1150.133	9.83	
1153.461	12.48	
1156.786	16.13	
1160.109	20.11	
1163.43	15.46	
1166.748	19.11	
1170.063	16.13	
1173.376	18.12	
1176.687	20.44	
1179.995	24.75	
1183.3	25.08	
1186.603	29.06	
1189.904	25.75	
1193.202	28.73	
1196.498	27.4	
1199.791	29.06	
1203.082	30.06	
1206.37	29.73	
1209.656	24.09	
1212.94	30.06	
1216.221	34.37	
1219.499	33.04	
1222.775	38.02	
1226.049	36.69	
1229.32	34.7	
1232.589	36.36	
1235.856	46.31	
1239.12	41.66	
1242.381	44.98	
1245.64	49.96	
1248.897	58.91	
1252.151	55.59	
1255.403	60.24	
1258.652	63.22	
1261.9	65.21	
1265.144	65.54	
1268.386	65.21	
1271.626	65.88	
1274.864	66.21	
1278.099	62.89	
1281.331	56.59	
1284.562	55.26	
1287.789	56.59	
1291.015	53.94	
1294.238	49.29	
1297.459	48.63	
1300.677	44.65	
1303.893	43.66	
1307.106	41	
1310.318	41.33	
1313.526	43.32	
1316.733	42.33	
1319.937	43.99	
1323.139	47.3	
1326.338	50.95	
1329.535	48.96	
1332.73	44.32	
1335.922	49.96	
1339.112	52.28	
1342.3	51.95	
1345.485	53.94	
1348.668	62.23	
1351.848	56.59	
1355.027	63.56	
1358.203	57.59	
1361.376	56.59	
1364.547	58.25	
1367.716	63.89	
1370.883	49.96	
1374.047	58.91	
1377.209	53.94	
1380.369	55.93	
1383.526	53.27	
1386.681	58.58	
1389.834	59.24	
1392.984	57.25	
1396.132	57.59	
1399.278	68.53	
1402.421	64.88	
1405.562	67.54	
1408.701	67.2	
1411.838	76.49	
1414.972	75.5	
1418.104	76.82	
1421.234	78.81	
1424.361	80.14	
1427.486	83.79	
1430.609	81.13	
1433.73	85.11	
1436.848	81.47	
1439.964	85.78	
1443.078	90.09	
1446.189	102.36	
1449.299	115.96	
1452.405	124.58	
1455.51	125.25	
1458.613	123.59	
1461.713	112.31	
1464.811	97.72	
1467.906	86.44	
1471	64.88	
1474.091	64.22	
1477.18	47.97	
1480.267	45.31	
1483.351	34.04	
1486.433	30.72	
1489.513	34.04	
1492.591	33.71	
1495.666	29.39	
1498.74	28.4	
1501.811	23.09	
1504.879	21.43	
1507.946	18.78	
1511.01	19.11	
1514.073	18.78	
1517.132	17.12	
1520.19	19.78	
1523.246	17.79	
1526.299	17.45	
1529.35	16.79	
1532.399	20.44	
1535.446	18.45	
1538.49	19.78	
1541.532	13.14	
1544.572	17.12	
1547.61	19.78	
1550.646	15.8	
1553.68	17.79	
1556.711	11.48	
1559.74	11.82	
1562.767	14.8	
1565.792	17.79	
1568.814	18.12	
1571.835	13.47	
1574.853	13.14	
1577.869	17.12	
1580.883	5.18	
1583.895	9.16	
1586.904	17.79	
1589.912	8.17	
1592.917	12.81	
1595.92	11.48	
1598.921	9.83	
1601.92	10.49	
1604.917	11.15	
1607.911	13.81	
1610.903	11.48	
1613.894	7.17	
1616.882	12.81	
1619.868	12.15	
1622.851	10.16	
1625.833	11.15	
1628.812	10.16	
1631.79	16.46	
1634.765	20.77	
1637.738	16.46	
1640.709	12.15	
1643.678	15.8	
1646.645	18.12	
1649.609	24.75	
1652.572	22.43	
1655.532	24.42	
1658.49	26.08	
1661.447	31.38	
1664.401	31.05	
1667.353	34.04	
1670.302	36.36	
1673.25	35.03	
1676.196	46.31	
1679.139	46.64	
1682.081	46.31	
1685.02	44.32	
1687.957	49.29	
1690.893	54.6	
1693.826	52.61	
1696.757	63.55	
1699.686	63.22	
1702.612	62.89	
1705.537	67.2	
1708.46	63.89	
1711.38	56.59	
1714.299	51.61	
1717.215	46.31	
1720.13	50.29	
1723.042	45.64	
1725.952	33.37	
1728.86	29.06	
1731.767	28.07	
1734.671	24.09	
1737.573	25.74	
1740.473	25.08	
1743.37	16.46	
1746.266	25.41	
1749.16	18.45	
1752.052	18.12	
1754.942	19.44	
1757.829	15.13	
1760.715	15.13	
1763.598	9.49	
1766.48	15.8	
1769.36	12.15	
1772.237	10.82	
1775.112	1.87	
1777.986	7.5	
1780.857	8.83	
1783.727	5.51	
1786.594	-3.11	
1789.459	1.87	
1792.323	5.85	
1795.184	5.18	
1798.043	2.2	
1800.9	1.53	
1803.756	2.2	
1806.609	5.85	
1809.46	6.51	
1812.309	5.85	
1815.157	-0.79	
1818.002	3.19	
1820.845	6.18	
1823.686	2.53	
1826.526	1.2	
1829.363	-0.46	
1832.198	6.18	
1835.031	1.53	
1837.863	4.19	
1840.692	-1.12	
1843.519	7.17	
1846.345	2.2	
1849.168	0.87	
1851.989	4.52	
1854.809	1.2	
1857.626	2.86	
1860.441	2.86	
1863.255	1.53	
1866.066	5.85	
1868.876	6.51	
1871.684	3.19	
1874.489	0.54	
1877.293	1.2	
1880.095	-2.45	
1882.894	1.87	
1885.692	3.86	
1888.488	2.86	
1891.282	1.87	
1894.074	1.87	
1896.864	1.2	
1899.652	1.2	
1902.438	-2.45	
1905.222	-1.45	
1908.004	-2.78	
1910.785	2.86	
1913.563	2.2	
1916.339	-3.11	
1919.114	-1.12	
1921.886	-4.77	
1924.657	0.54	
1927.426	2.2	
1930.193	1.53	
1932.957	-2.45	
1935.72	0.54	
1938.481	2.86	
1941.24	3.52	
1943.998	-3.44	
1946.753	-0.12	
1949.506	6.51	
1952.258	4.85	
1955.007	2.2	
1957.755	3.19	
1960.501	2.86	
1963.245	4.52	
1965.986	1.2	
1968.726	-0.79	
1971.465	-2.78	
1974.201	2.2	
1976.935	0.54	
1979.668	0.54	
1982.398	3.19	
1985.127	-2.45	
1987.854	1.53	
1990.579	-0.79	
1993.302	-0.79	
1996.023	2.53	
1998.742	0.54	
2001.46	4.19	
2004.175	-0.46	
2006.889	2.53	
2009.6	-0.12	
2012.31	-0.46	
2015.018	2.2	
2017.725	2.86	
2020.429	0.54	
2023.131	-3.44	
2025.832	-0.79	
2028.531	2.2	
2031.228	-1.78	
2033.923	5.51	
2036.616	-0.79	
2039.307	-0.79	
2041.997	1.87	
2044.684	0.21	
2047.37	1.53	
2050.054	-1.12	
2052.736	-0.46	
2055.416	-0.12	
2058.095	0.21	
2060.771	-1.12	
2063.446	1.53	
2066.119	-2.11	
2068.79	1.53	
2071.459	-2.78	
2074.127	-4.77	
2076.792	2.2	
2079.456	-0.79	
2082.118	3.86	
2084.778	-1.78	
2087.436	1.53	
2090.093	-0.79	
2092.747	-1.12	
2095.4	0.54	
2098.051	1.87	
2100.7	-2.45	
2103.348	-1.12	
2105.993	-0.12	
2108.637	-0.12	
2111.279	-1.45	
2113.919	-3.77	
2116.558	-3.44	
2119.194	-3.77	
2121.829	-2.11	
2124.462	-0.46	
2127.093	0.87	
2129.723	1.53	
2132.35	-0.12	
2134.976	-0.12	
2137.6	-0.79	
2140.223	-1.12	
2142.843	-1.78	
2145.462	-4.44	
2148.079	-0.12	
2150.694	-1.12	
2153.307	3.52	
2155.919	0.54	
2158.528	-1.78	
2161.137	1.53	
2163.743	-1.12	
2166.347	-0.79	
2168.95	0.87	
2171.551	-1.45	
2174.15	-1.12	
2176.748	1.53	
2179.343	-1.45	
2181.937	-7.09	
2184.529	-0.79	
2187.12	-3.44	
2189.708	-1.78	
2192.295	-3.44	
2194.88	-0.46	
2197.464	-1.45	
2200.045	-0.79	
2202.625	-0.12	
2205.203	-2.45	
2207.78	1.2	
2210.355	-1.45	
2212.928	2.86	
2215.499	-0.46	
2218.068	1.2	
2220.636	-1.45	
2223.202	-3.11	
2225.766	-0.46	
2228.329	2.53	
2230.889	0.21	
2233.449	1.2	
2236.006	-4.1	
2238.562	-1.45	
2241.115	1.53	
2243.668	2.2	
2246.218	-6.09	
2248.767	-0.12	
2251.314	-5.43	
2253.859	0.21	
2256.403	-0.12	
2258.945	0.54	
2261.485	-5.76	
2264.023	-2.45	
2266.56	-2.11	
2269.095	-2.78	
2271.629	-0.12	
2274.16	-2.45	
2276.69	-2.78	
2279.219	0.21	
2281.745	-2.45	
2284.27	-2.11	
2286.793	-3.77	
2289.315	-0.79	
2291.835	-2.78	
2294.353	0.87	
2296.869	-1.45	
2299.384	0.54	
2301.897	-1.78	
2304.408	1.87	
2306.918	1.53	
2309.426	-2.45	
2311.932	-1.12	
2314.437	1.2	
2316.94	-4.77	
2319.441	0.87	
2321.941	-1.45	
2324.439	-3.11	
2326.935	2.53	
2329.43	2.53	
2331.923	-0.12	
2334.414	-2.11	
2336.904	-5.43	
2339.392	-0.79	
2341.878	-3.44	
2344.363	-3.77	
2346.846	-4.77	
2349.328	-3.44	
2351.807	-3.11	
2354.285	-2.45	
2356.762	3.19	
2359.237	-0.79	
2361.71	0.21	
2364.181	-1.78	
2366.651	-2.11	
2369.119	-1.78	
2371.586	1.53	
2374.051	-4.1	
2376.514	-5.1	
2378.976	-0.12	
2381.436	-1.78	
2383.894	-0.79	
2386.351	0.21	
2388.806	-4.1	
2391.259	-3.11	
2393.711	-4.77	
2396.161	-3.44	
2398.61	-2.45	
2401.057	-1.78	
2403.502	-1.45	
2405.946	0.87	
2408.388	-2.11	
2410.829	-0.46	
2413.268	-2.78	
2415.705	-0.46	
2418.141	-1.78	
2420.575	-1.12	
2423.007	0.21	
2425.438	-3.11	
2427.867	-5.76	
2430.295	-4.77	
2432.721	-1.12	
2435.145	-1.12	
2437.568	-2.78	
2439.989	-1.45	
2442.409	-5.1	
2444.827	-5.1	
2447.243	-0.79	
2449.658	1.87	
2452.071	-1.45	
2454.483	-3.44	
2456.893	-0.12	
2459.302	-2.45	
2461.709	-3.11	
2464.114	-3.44	
2466.518	-2.11	
2468.92	-0.79	
2471.32	-3.11	
2473.719	-8.08	
2476.117	-2.45	
2478.512	-3.77	
2480.907	3.86	
2483.299	-4.1	
2485.691	-3.77	
2488.08	-0.12	
2490.468	-2.78	
2492.854	-0.12	
2495.239	-2.11	
2497.623	-4.44	
2500.004	-2.45	
2502.384	0.54	
2504.763	-0.79	
2507.14	3.19	
2509.515	-1.12	
2511.889	-2.78	
2514.262	-5.76	
2516.633	-0.12	
2519.002	-2.78	
2521.369	-2.11	
2523.736	-2.78	
2526.1	-6.09	
2528.463	-5.43	
2530.825	-3.44	
2533.185	-5.1	
2535.543	-1.78	
2537.9	-1.12	
2540.255	-4.77	
2542.609	-4.1	
2544.961	-0.79	
2547.312	3.52	
2549.661	-2.45	
2552.009	0.21	
2554.355	-1.45	
2556.7	-4.1	
2559.043	-1.78	
2561.384	-1.78	
2563.724	-2.11	
2566.063	-2.11	
2568.4	-2.11	
2570.735	-0.12	
2573.069	-3.44	
2575.402	2.2	
2577.733	1.87	
2580.062	-1.12	
2582.39	-1.78	
2584.716	2.86	
2587.041	-3.44	
2589.364	0.54	
2591.686	-2.78	
2594.006	-4.44	
2596.325	-2.11	
2598.643	-3.11	
2600.958	-0.46	
2603.273	-4.1	
2605.585	-1.45	
2607.897	-0.46	
2610.206	-3.77	
2612.515	-2.11	
2614.822	-4.1	
2617.127	0.87	
2619.431	-1.45	
2621.733	-2.78	
2624.034	-0.46	
2626.333	-2.11	
2628.631	-1.45	
2630.927	-2.45	
2633.222	-2.11	
2635.515	-3.77	
2637.807	0.87	
2640.098	-0.46	
2642.387	-0.12	
2644.674	-1.12	
2646.96	-0.46	
2649.245	2.53	
2651.528	-2.45	
2653.809	-6.09	
2656.089	2.53	
2658.368	0.21	
2660.645	3.52	
2662.921	2.86	
2665.195	-1.78	
2667.468	-1.12	
2669.739	3.19	
2672.009	0.21	
2674.277	-2.45	
2676.544	0.21	
2678.809	3.52	
2681.073	2.2	
2683.336	1.87	
2685.597	-0.46	
2687.856	-2.45	
2690.115	3.19	
2692.371	2.53	
2694.626	4.19	
2696.88	3.52	
2699.133	3.19	
2701.383	2.2	
2703.633	7.5	
2705.881	3.52	
2708.127	3.19	
2710.373	4.52	
2712.616	4.19	
2714.859	3.19	
2717.099	5.51	
2719.339	7.5	
2721.577	9.16	
2723.813	3.86	
2726.048	5.85	
2728.282	4.52	
2730.514	6.18	
2732.745	5.51	
2734.974	2.2	
2737.202	6.51	
2739.428	8.5	
2741.653	3.52	
2743.877	4.52	
2746.099	3.86	
2748.32	2.86	
2750.539	4.85	
2752.757	7.5	
2754.974	3.86	
2757.189	0.21	
2759.403	1.2	
2761.615	6.84	
2763.826	6.51	
2766.035	5.85	
2768.243	5.18	
2770.45	7.17	
2772.655	5.85	
2774.859	7.84	
2777.062	2.2	
2779.263	5.85	
2781.462	7.5	
2783.66	9.16	
2785.857	6.84	
2788.053	3.86	
2790.247	8.5	
2792.439	10.49	
2794.631	4.19	
2796.82	10.49	
2799.009	5.85	
2801.196	12.15	
2803.382	8.5	
2805.566	11.15	
2807.749	10.82	
2809.93	10.49	
2812.11	8.83	
2814.289	10.49	
2816.466	10.82	
2818.642	12.15	
2820.817	11.82	
2822.99	17.45	
2825.162	17.78	
2827.332	16.79	
2829.502	15.13	
2831.669	17.12	
2833.836	15.8	
2836	20.77	
2838.164	21.1	
2840.326	20.77	
2842.487	21.1	
2844.647	22.1	
2846.805	24.42	
2848.961	24.75	
2851.117	29.39	
2853.271	28.07	
2855.423	27.4	
2857.575	30.39	
2859.725	33.37	
2861.873	35.69	
2864.02	37.35	
2866.166	36.69	
2868.311	39.01	
2870.454	39.67	
2872.596	39.34	
2874.736	39.34	
2876.875	44.32	
2879.013	50.62	
2881.149	50.29	
2883.284	52.28	
2885.418	52.28	
2887.551	53.94	
2889.682	61.23	
2891.811	53.94	
2893.94	58.91	
2896.067	56.59	
2898.192	53.94	
2900.317	57.92	
2902.439	52.94	
2904.561	55.26	
2906.681	56.59	
2908.8	54.27	
2910.918	59.24	
2913.034	60.57	
2915.149	61.56	
2917.263	68.53	
2919.375	70.52	
2921.486	70.85	
2923.596	81.46	
2925.704	86.44	
2927.811	91.41	
2929.917	95.73	
2932.021	107.33	
2934.124	114.3	
2936.226	114.3	
2938.327	120.6	
2940.426	118.61	
2942.524	119.27	
2944.62	110.65	
2946.715	105.01	
2948.809	103.02	
2950.902	97.05	
2952.993	84.45	
2955.083	79.14	
2957.171	75.83	
2959.259	69.19	
2961.345	65.21	
2963.429	62.89	
2965.513	55.59	
2967.595	53.94	
2969.676	52.61	
2971.755	49.96	
2973.833	46.97	
2975.91	48.3	
2977.986	42.99	
2980.06	39.67	
2982.133	34.7	
2984.205	38.02	
2986.275	29.72	
2988.345	31.38	
2990.412	29.72	
2992.479	25.74	
2994.544	25.41	
2996.608	24.42	
2998.671	20.77	
3000.732	17.78	
3002.792	19.11	
3004.851	23.09	
3006.909	17.45	
3008.965	18.78	
3011.02	17.78	
3013.074	17.45	
3015.126	17.45	
3017.177	18.78	
3019.227	13.47	
3021.276	12.48	
3023.323	12.15	
3025.369	15.8	
3027.414	14.8	
3029.458	13.81	
3031.5	11.48	
3033.541	9.16	
3035.581	10.49	
3037.619	7.17	
3039.656	10.82	
3041.692	9.83	
3043.727	8.17	
3045.76	11.48	
3047.793	6.18	
3049.824	8.17	
3051.853	3.19	
3053.882	0.54	
3055.909	-2.11	
