RamanShift:204		
0.351	-819.87	
4.587	-93.45	
8.82	-34.41	
13.049	-22.47	
17.275	-13.85	
21.497	-8.54	
25.716	-7.55	
29.931	-3.9	
34.142	-9.54	
38.351	-8.21	
42.555	-4.89	
46.756	-3.23	
50.954	-7.88	
55.148	-2.9	
59.339	-3.57	
63.527	-2.57	
67.71	-4.89	
71.891	-2.9	
76.068	-2.24	
80.241	1.41	
84.411	1.08	
88.578	2.74	
92.741	4.73	
96.901	7.38	
101.057	11.69	
105.21	14.34	
109.359	12.35	
113.505	14.68	
117.648	16.67	
121.787	22.3	
125.923	19.65	
130.055	23.3	
134.184	22.64	
138.31	31.59	
142.432	33.25	
146.551	34.58	
150.667	38.22	
154.779	39.88	
158.887	40.54	
162.993	48.17	
167.095	46.85	
171.193	47.84	
175.289	48.5	
179.381	44.86	
183.469	46.18	
187.554	46.85	
191.636	40.55	
195.715	47.18	
199.79	49.17	
203.862	38.89	
207.931	39.22	
211.996	36.23	
216.058	33.25	
220.116	32.92	
224.172	31.59	
228.224	33.58	
232.272	33.91	
236.318	25.95	
240.36	34.58	
244.399	27.94	
248.434	28.61	
252.466	28.94	
256.495	23.3	
260.521	23.63	
264.544	25.62	
268.563	26.95	
272.579	23.63	
276.591	30.26	
280.601	27.94	
284.607	25.95	
288.61	26.28	
292.609	30.26	
296.606	25.29	
300.599	23.3	
304.589	22.3	
308.575	23.96	
312.559	28.27	
316.539	32.59	
320.516	23.63	
324.49	19.98	
328.461	21.31	
332.428	16.67	
336.392	23.63	
340.353	23.3	
344.311	17	
348.266	16.67	
352.217	14.34	
356.165	17.66	
360.11	14.34	
364.052	8.04	
367.991	7.38	
371.926	16.33	
375.859	10.03	
379.788	11.69	
383.714	11.69	
387.637	9.37	
391.557	13.35	
395.473	14.68	
399.387	9.04	
403.297	10.7	
407.204	7.38	
411.108	10.7	
415.009	8.37	
418.907	8.37	
422.802	13.35	
426.693	16.67	
430.581	21.64	
434.467	37.89	
438.349	53.15	
442.228	49.5	
446.104	45.19	
449.977	34.91	
453.847	25.29	
457.713	22.97	
461.577	18.32	
465.438	17.66	
469.295	9.37	
473.149	11.03	
477.001	10.03	
480.849	7.05	
484.694	10.36	
488.536	6.72	
492.375	11.69	
496.211	9.04	
500.044	10.7	
503.874	16.67	
507.701	13.35	
511.525	11.69	
515.346	11.69	
519.163	11.36	
522.978	14.34	
526.79	17	
530.598	11.69	
534.404	14.01	
538.207	10.03	
542.006	9.04	
545.803	16.67	
549.596	19.32	
553.387	11.36	
557.175	18.32	
560.959	19.98	
564.741	22.97	
568.519	22.97	
572.295	21.31	
576.068	31.26	
579.837	34.24	
583.604	40.55	
587.368	58.45	
591.128	61.44	
594.886	70.73	
598.641	75.37	
602.393	80.68	
606.142	88.64	
609.887	100.58	
613.63	114.18	
617.37	117.16	
621.108	88.97	
624.842	62.1	
628.573	40.55	
632.301	28.94	
636.027	22.97	
639.749	14.01	
643.468	13.68	
647.185	13.68	
650.899	4.73	
654.609	5.72	
658.317	3.07	
662.022	2.4	
665.724	7.38	
669.423	-1.91	
673.119	4.06	
676.813	7.38	
680.503	4.73	
684.191	2.4	
687.875	0.08	
691.557	3.4	
695.236	6.05	
698.912	6.05	
702.585	6.38	
706.256	6.38	
709.923	4.06	
713.588	5.39	
717.249	0.75	
720.908	3.73	
724.564	1.74	
728.217	5.06	
731.868	5.06	
735.515	4.73	
739.16	2.74	
742.801	4.39	
746.44	6.05	
750.076	8.04	
753.71	6.72	
757.34	11.03	
760.968	6.05	
764.593	6.38	
768.215	14.68	
771.834	13.68	
775.45	16.67	
779.064	16	
782.675	18.32	
786.283	29.6	
789.888	32.92	
793.49	36.57	
797.09	34.91	
800.686	38.89	
804.281	38.89	
807.872	42.54	
811.46	39.88	
815.046	49.5	
818.629	49.17	
822.209	56.47	
825.786	53.81	
829.361	54.14	
832.933	60.78	
836.502	62.44	
840.068	56.47	
843.632	76.03	
847.193	77.69	
850.751	83.99	
854.306	109.2	
857.859	125.78	
861.409	147.34	
864.956	192.12	
868.5	208.7	
872.042	231.92	
875.581	254.48	
879.117	308.87	
882.651	384.5	
886.182	452.5	
889.71	448.52	
893.235	345.03	
896.758	235.9	
900.278	143.69	
903.795	91.95	
907.31	67.74	
910.822	48.51	
914.331	36.23	
917.838	31.59	
921.341	28.27	
924.843	25.95	
928.341	26.62	
931.837	16.33	
935.33	22.3	
938.821	18.32	
942.308	18.32	
945.793	15.01	
949.276	11.69	
952.756	16.33	
956.233	14.68	
959.707	6.72	
963.179	10.7	
966.649	14.01	
970.115	10.03	
973.579	16.33	
977.04	12.35	
980.499	16.67	
983.955	19.65	
987.408	20.65	
990.859	21.64	
994.307	21.97	
997.753	26.62	
1001.196	27.61	
1004.636	29.93	
1008.074	33.58	
1011.509	30.6	
1014.941	30.26	
1018.371	31.92	
1021.798	25.29	
1025.223	27.61	
1028.645	27.28	
1032.064	27.61	
1035.481	25.95	
1038.896	24.63	
1042.307	28.94	
1045.716	30.26	
1049.123	31.92	
1052.527	33.91	
1055.928	27.61	
1059.327	32.92	
1062.723	32.25	
1066.117	28.94	
1069.508	28.61	
1072.897	23.3	
1076.283	18.66	
1079.666	21.97	
1083.047	26.28	
1086.425	19.32	
1089.801	22.64	
1093.174	23.3	
1096.545	21.64	
1099.913	22.3	
1103.279	26.95	
1106.642	28.61	
1110.002	23.63	
1113.36	23.63	
1116.716	29.27	
1120.069	23.96	
1123.419	33.25	
1126.767	27.61	
1130.113	28.94	
1133.456	27.28	
1136.796	19.98	
1140.134	23.63	
1143.47	13.68	
1146.802	17	
1150.133	6.05	
1153.461	9.37	
1156.786	9.7	
1160.109	12.35	
1163.43	11.03	
1166.748	10.7	
1170.063	5.72	
1173.376	9.37	
1176.687	13.35	
1179.995	12.02	
1183.3	14.01	
1186.603	13.68	
1189.904	8.37	
1193.202	15.34	
1196.498	13.35	
1199.791	12.02	
1203.082	12.69	
1206.37	10.7	
1209.656	13.68	
1212.94	16	
1216.221	25.29	
1219.499	21.97	
1222.775	30.26	
1226.049	28.27	
1229.32	25.29	
1232.589	25.62	
1235.856	34.24	
1239.12	35.24	
1242.381	32.25	
1245.64	32.92	
1248.897	39.55	
1252.151	35.9	
1255.403	33.25	
1258.652	39.22	
1261.9	41.87	
1265.144	41.87	
1268.386	42.54	
1271.626	52.15	
1274.864	60.78	
1278.099	60.45	
1281.331	51.49	
1284.562	49.17	
1287.789	44.86	
1291.015	51.16	
1294.238	46.18	
1297.459	49.83	
1300.677	41.54	
1303.893	45.19	
1307.106	38.89	
1310.318	33.58	
1313.526	30.93	
1316.733	37.89	
1319.937	31.26	
1323.139	37.23	
1326.338	36.57	
1329.535	38.56	
1332.73	37.89	
1335.922	41.54	
1339.112	40.55	
1342.3	46.85	
1345.485	42.2	
1348.668	52.15	
1351.848	49.17	
1355.027	56.13	
1358.203	54.48	
1361.376	53.48	
1364.547	46.85	
1367.716	47.51	
1370.883	48.17	
1374.047	54.81	
1377.209	45.19	
1380.369	46.52	
1383.526	49.17	
1386.681	56.47	
1389.834	51.49	
1392.984	52.82	
1396.132	50.83	
1399.278	66.75	
1402.421	61.77	
1405.562	72.39	
1408.701	67.08	
1411.838	77.36	
1414.972	77.03	
1418.104	82	
1421.234	76.03	
1424.361	87.31	
1427.486	89.3	
1430.609	90.3	
1433.73	93.94	
1436.848	88.97	
1439.964	94.94	
1443.078	90.96	
1446.189	86.65	
1449.299	83	
1452.405	80.68	
1455.51	73.71	
1458.613	73.38	
1461.713	80.68	
1464.811	72.05	
1467.906	71.39	
1471	56.13	
1474.091	62.77	
1477.18	51.16	
1480.267	45.85	
1483.351	33.91	
1486.433	34.58	
1489.513	30.93	
1492.591	32.25	
1495.666	29.27	
1498.74	23.63	
1501.811	23.96	
1504.879	29.27	
1507.946	23.96	
1511.01	20.31	
1514.073	22.3	
1517.132	19.98	
1520.19	23.96	
1523.246	14.01	
1526.299	16.67	
1529.35	21.64	
1532.399	21.64	
1535.446	24.29	
1538.49	21.97	
1541.532	10.36	
1544.572	17	
1547.61	18.32	
1550.646	14.68	
1553.68	21.97	
1556.711	18.32	
1559.74	14.34	
1562.767	21.31	
1565.792	19.32	
1568.814	16	
1571.835	16.33	
1574.853	15.34	
1577.869	16	
1580.883	10.36	
1583.895	12.02	
1586.904	16	
1589.912	14.01	
1592.917	13.02	
1595.92	13.02	
1598.921	18.32	
1601.92	19.65	
1604.917	13.35	
1607.911	22.64	
1610.903	17	
1613.894	14.01	
1616.882	17.99	
1619.868	19.32	
1622.851	23.3	
1625.833	19.98	
1628.812	18.99	
1631.79	30.93	
1634.765	30.93	
1637.738	32.25	
1640.709	28.61	
1643.678	37.23	
1646.645	35.57	
1649.609	39.55	
1652.572	45.85	
1655.532	50.5	
1658.49	50.16	
1661.447	57.13	
1664.401	58.46	
1667.353	56.13	
1670.302	62.1	
1673.25	48.17	
1676.196	58.46	
1679.139	47.18	
1682.081	49.5	
1685.02	48.17	
1687.957	49.83	
1690.893	51.16	
1693.826	47.84	
1696.757	44.53	
1699.686	45.52	
1702.612	44.86	
1705.537	47.84	
1708.46	40.55	
1711.38	39.22	
1714.299	31.26	
1717.215	32.59	
1720.13	36.9	
1723.042	33.91	
1725.952	28.94	
1728.86	29.93	
1731.767	27.61	
1734.671	24.29	
1737.573	21.31	
1740.473	22.97	
1743.37	23.3	
1746.266	23.96	
1749.16	22.64	
1752.052	22.97	
1754.942	23.3	
1757.829	20.98	
1760.715	18.66	
1763.598	17.99	
1766.48	16.33	
1769.36	12.69	
1772.237	15.34	
1775.112	1.74	
1777.986	9.04	
1780.857	7.71	
1783.727	3.07	
1786.594	5.39	
1789.459	1.08	
1792.323	7.05	
1795.184	4.06	
1798.043	5.06	
1800.9	1.74	
1803.756	5.72	
1806.609	8.04	
1809.46	9.37	
1812.309	5.72	
1815.157	2.4	
1818.002	4.73	
1820.845	1.74	
1823.686	0.41	
1826.526	1.41	
1829.363	4.39	
1832.198	3.07	
1835.031	-0.91	
1837.863	0.75	
1840.692	-1.91	
1843.519	8.04	
1846.345	7.38	
1849.168	4.39	
1851.989	1.08	
1854.809	0.08	
1857.626	1.74	
1860.441	5.39	
1863.255	0.75	
1866.066	8.71	
1868.876	3.73	
1871.684	3.07	
1874.489	3.73	
1877.293	3.07	
1880.095	0.41	
1882.894	-3.23	
1885.692	8.37	
1888.488	2.74	
1891.282	5.06	
1894.074	5.06	
1896.864	1.08	
1899.652	3.07	
1902.438	-0.25	
1905.222	0.75	
1908.004	2.74	
1910.785	6.38	
1913.563	4.39	
1916.339	0.08	
1919.114	0.08	
1921.886	1.74	
1924.657	0.41	
1927.426	-2.57	
1930.193	3.07	
1932.957	-1.58	
1935.72	0.41	
1938.481	-0.91	
1941.24	4.06	
1943.998	-1.24	
1946.753	3.07	
1949.506	3.4	
1952.258	3.73	
1955.007	2.07	
1957.755	1.74	
1960.501	4.06	
1963.245	3.73	
1965.986	1.74	
1968.726	-3.57	
1971.465	-1.58	
1974.201	2.4	
1976.935	0.41	
1979.668	0.75	
1982.398	0.75	
1985.127	0.75	
1987.854	1.41	
1990.579	1.08	
1993.302	-1.91	
1996.023	0.08	
1998.742	0.41	
2001.46	6.05	
2004.175	0.41	
2006.889	4.06	
2009.6	0.41	
2012.31	-0.58	
2015.018	1.41	
2017.725	3.73	
2020.429	0.41	
2023.131	-0.58	
2025.832	1.08	
2028.531	-0.91	
2031.228	0.08	
2033.923	0.75	
2036.616	-0.25	
2039.307	0.75	
2041.997	0.08	
2044.684	-3.9	
2047.37	2.4	
2050.054	-1.24	
2052.736	-3.23	
2055.416	-1.24	
2058.095	-2.24	
2060.771	0.75	
2063.446	2.74	
2066.119	-1.58	
2068.79	0.41	
2071.459	-5.56	
2074.127	-4.23	
2076.792	2.07	
2079.456	-1.58	
2082.118	4.39	
2084.778	1.74	
2087.436	0.41	
2090.093	-1.24	
2092.747	0.75	
2095.4	-3.23	
2098.051	-0.25	
2100.7	-3.57	
2103.348	-1.58	
2105.993	-1.24	
2108.637	0.41	
2111.279	-2.57	
2113.919	-2.24	
2116.558	-2.9	
2119.194	-1.24	
2121.829	-3.23	
2124.462	0.41	
2127.093	-3.9	
2129.723	-2.57	
2132.35	-2.9	
2134.976	-2.9	
2137.6	0.75	
2140.223	1.74	
2142.843	-1.58	
2145.462	-1.58	
2148.079	0.41	
2150.694	-2.24	
2153.307	1.74	
2155.919	1.41	
2158.528	0.41	
2161.137	3.4	
2163.743	1.41	
2166.347	-2.9	
2168.95	0.08	
2171.551	-2.9	
2174.15	-2.9	
2176.748	4.39	
2179.343	-5.89	
2181.937	-2.9	
2184.529	-3.57	
2187.12	-1.91	
2189.708	-2.24	
2192.295	-1.58	
2194.88	0.75	
2197.464	-3.9	
2200.045	0.75	
2202.625	-1.91	
2205.203	1.74	
2207.78	0.75	
2210.355	0.08	
2212.928	0.75	
2215.499	1.41	
2218.068	-0.25	
2220.636	0.41	
2223.202	-1.58	
2225.766	1.74	
2228.329	-1.91	
2230.889	-1.24	
2233.449	0.75	
2236.006	-2.24	
2238.562	0.75	
2241.115	1.08	
2243.668	-1.24	
2246.218	-1.24	
2248.767	-0.58	
2251.314	-1.91	
2253.859	0.08	
2256.403	0.41	
2258.945	-0.91	
2261.485	-6.55	
2264.023	-1.24	
2266.56	0.08	
2269.095	-2.57	
2271.629	-4.23	
2274.16	-1.58	
2276.69	2.07	
2279.219	-1.24	
2281.745	-3.57	
2284.27	-2.24	
2286.793	-2.57	
2289.315	1.08	
2291.835	0.75	
2294.353	-0.58	
2296.869	-0.91	
2299.384	-2.57	
2301.897	0.08	
2304.408	1.08	
2306.918	0.41	
2309.426	0.41	
2311.932	1.74	
2314.437	1.74	
2316.94	-4.56	
2319.441	1.08	
2321.941	-0.25	
2324.439	-1.24	
2326.935	3.07	
2329.43	1.08	
2331.923	0.41	
2334.414	-2.9	
2336.904	-2.9	
2339.392	-1.91	
2341.878	-1.24	
2344.363	-2.24	
2346.846	-2.9	
2349.328	-4.23	
2351.807	-0.58	
2354.285	-1.91	
2356.762	2.74	
2359.237	-1.58	
2361.71	1.41	
2364.181	-4.23	
2366.651	1.41	
2369.119	1.74	
2371.586	3.4	
2374.051	-3.23	
2376.514	-2.24	
2378.976	0.08	
2381.436	-0.91	
2383.894	0.75	
2386.351	-1.58	
2388.806	-1.24	
2391.259	0.08	
2393.711	-1.58	
2396.161	0.41	
2398.61	-2.57	
2401.057	4.06	
2403.502	0.08	
2405.946	0.08	
2408.388	-3.57	
2410.829	-0.58	
2413.268	0.75	
2415.705	0.08	
2418.141	-2.24	
2420.575	-0.58	
2423.007	0.41	
2425.438	-1.58	
2427.867	-5.22	
2430.295	-1.58	
2432.721	1.08	
2435.145	1.41	
2437.568	-0.58	
2439.989	0.08	
2442.409	-5.89	
2444.827	-2.57	
2447.243	1.41	
2449.658	4.39	
2452.071	-1.58	
2454.483	0.41	
2456.893	-2.24	
2459.302	-0.58	
2461.709	-1.91	
2464.114	0.75	
2466.518	-0.25	
2468.92	1.08	
2471.32	-3.57	
2473.719	-2.9	
2476.117	1.08	
2478.512	-3.9	
2480.907	1.41	
2483.299	1.74	
2485.691	-2.24	
2488.08	0.75	
2490.468	-0.91	
2492.854	0.75	
2495.239	-2.57	
2497.623	0.75	
2500.004	-2.9	
2502.384	-0.58	
2504.763	-0.25	
2507.14	-0.58	
2509.515	2.07	
2511.889	2.4	
2514.262	-0.58	
2516.633	0.08	
2519.002	-0.58	
2521.369	0.08	
2523.736	-1.24	
2526.1	-3.23	
2528.463	-3.23	
2530.825	-1.58	
2533.185	0.08	
2535.543	2.4	
2537.9	-0.58	
2540.255	-0.91	
2542.609	-4.89	
2544.961	4.39	
2547.312	3.4	
2549.661	-2.24	
2552.009	-0.58	
2554.355	0.75	
2556.7	0.08	
2559.043	-1.58	
2561.384	-1.91	
2563.724	1.08	
2566.063	2.07	
2568.4	2.74	
2570.735	3.4	
2573.069	-1.91	
2575.402	4.39	
2577.733	3.73	
2580.062	1.41	
2582.39	0.41	
2584.716	5.06	
2587.041	-0.25	
2589.364	1.41	
2591.686	3.07	
2594.006	-0.25	
2596.325	1.74	
2598.643	-2.9	
2600.958	3.07	
2603.273	-1.91	
2605.585	-1.58	
2607.897	-0.91	
2610.206	0.41	
2612.515	4.06	
2614.822	-2.57	
2617.127	0.41	
2619.431	-1.91	
2621.733	-0.25	
2624.034	0.75	
2626.333	0.08	
2628.631	4.06	
2630.927	0.41	
2633.222	-0.25	
2635.515	-2.9	
2637.807	2.07	
2640.098	-3.57	
2642.387	0.08	
2644.674	0.75	
2646.96	-2.9	
2649.245	2.4	
2651.528	-3.57	
2653.809	-2.9	
2656.089	1.74	
2658.368	2.4	
2660.645	1.41	
2662.921	-0.25	
2665.195	-0.58	
2667.468	-0.25	
2669.739	3.07	
2672.009	2.07	
2674.277	-2.24	
2676.544	2.07	
2678.809	1.08	
2681.073	4.39	
2683.336	-0.25	
2685.597	3.73	
2687.856	1.08	
2690.115	6.05	
2692.371	2.4	
2694.626	4.06	
2696.88	1.41	
2699.133	3.4	
2701.383	2.07	
2703.633	1.41	
2705.881	2.4	
2708.127	3.4	
2710.373	5.06	
2712.616	5.72	
2714.859	1.08	
2717.099	2.74	
2719.339	4.06	
2721.577	3.07	
2723.813	4.06	
2726.048	6.38	
2728.282	4.73	
2730.514	3.4	
2732.745	5.06	
2734.974	2.4	
2737.202	5.39	
2739.428	5.72	
2741.653	4.73	
2743.877	0.75	
2746.099	6.38	
2748.32	2.74	
2750.539	4.06	
2752.757	8.71	
2754.974	1.74	
2757.189	1.41	
2759.403	3.73	
2761.615	3.4	
2763.826	6.05	
2766.035	5.06	
2768.243	4.39	
2770.45	6.38	
2772.655	8.04	
2774.859	6.72	
2777.062	1.08	
2779.263	7.38	
2781.462	6.05	
2783.66	9.37	
2785.857	6.38	
2788.053	8.04	
2790.247	9.04	
2792.439	10.03	
2794.631	5.06	
2796.82	5.72	
2799.009	11.69	
2801.196	12.69	
2803.382	12.02	
2805.566	10.36	
2807.749	14.34	
2809.93	13.35	
2812.11	10.36	
2814.289	10.36	
2816.466	10.7	
2818.642	14.34	
2820.817	14.34	
2822.99	15.67	
2825.162	14.34	
2827.332	16	
2829.502	14.01	
2831.669	14.01	
2833.836	16	
2836	18.66	
2838.164	17.66	
2840.326	22.3	
2842.487	20.31	
2844.647	17.33	
2846.805	20.65	
2848.961	26.28	
2851.117	21.97	
2853.271	24.63	
2855.423	26.62	
2857.575	27.61	
2859.725	30.6	
2861.873	28.27	
2864.02	26.95	
2866.166	28.61	
2868.311	29.27	
2870.454	28.94	
2872.596	30.93	
2874.736	33.25	
2876.875	32.59	
2879.013	33.91	
2881.149	36.9	
2883.284	38.22	
2885.418	38.22	
2887.551	39.22	
2889.682	46.18	
2891.811	42.2	
2893.94	41.87	
2896.067	46.51	
2898.192	46.18	
2900.317	46.18	
2902.439	43.53	
2904.561	46.51	
2906.681	53.15	
2908.8	50.83	
2910.918	49.5	
2913.034	55.8	
2915.149	52.82	
2917.263	56.46	
2919.375	56.13	
2921.486	63.43	
2923.596	67.74	
2925.704	72.38	
2927.811	81.67	
2929.917	80.68	
2932.021	95.27	
2934.124	99.91	
2936.226	104.56	
2938.327	109.2	
2940.426	112.85	
2942.524	113.51	
2944.62	103.89	
2946.715	99.25	
2948.809	94.94	
2950.902	87.31	
2952.993	80.34	
2955.083	74.37	
2957.171	64.42	
2959.259	59.78	
2961.345	51.49	
2963.429	54.14	
2965.513	44.19	
2967.595	40.54	
2969.676	38.89	
2971.755	36.23	
2973.833	37.56	
2975.91	34.58	
2977.986	33.58	
2980.06	33.91	
2982.133	33.91	
2984.205	28.94	
2986.275	24.29	
2988.345	26.28	
2990.412	26.95	
2992.479	24.96	
2994.544	23.3	
2996.608	22.97	
2998.671	21.31	
3000.732	17.66	
3002.792	19.32	
3004.851	18.66	
3006.909	17	
3008.965	18.32	
3011.02	19.65	
3013.074	17.33	
3015.126	16	
3017.177	17.66	
3019.227	13.68	
3021.276	15.34	
3023.323	15.34	
3025.369	16.33	
3027.414	13.68	
3029.458	17	
3031.5	11.36	
3033.541	8.71	
3035.581	11.69	
3037.619	9.04	
3039.656	11.03	
3041.692	8.04	
3043.727	7.71	
3045.76	12.02	
3047.793	6.72	
3049.824	7.05	
3051.853	1.41	
3053.882	-0.25	
3055.909	-1.91	
