RamanShift:204		
0.351	-553.43	
4.587	-86.48	
8.82	-27.78	
13.049	-19.15	
17.275	-14.84	
21.497	-14.18	
25.716	-12.52	
29.931	-11.19	
34.142	-10.2	
38.351	-7.21	
42.555	-5.89	
46.756	-4.56	
50.954	-2.24	
55.148	-3.57	
59.339	-4.23	
63.527	-1.91	
67.71	1.08	
71.891	-5.22	
76.068	-4.23	
80.241	0.41	
84.411	1.41	
88.578	-0.58	
92.741	-0.25	
96.901	0.08	
101.057	2.07	
105.21	2.4	
109.359	2.07	
113.505	1.08	
117.648	1.74	
121.787	1.74	
125.923	5.72	
130.055	7.05	
134.184	5.39	
138.31	7.38	
142.432	8.71	
146.551	9.7	
150.667	14.34	
154.779	15.67	
158.887	13.68	
162.993	20.98	
167.095	16	
171.193	18.99	
175.289	22.97	
179.381	26.62	
183.469	23.63	
187.554	25.62	
191.636	26.28	
195.715	32.25	
199.79	30.26	
203.862	33.58	
207.931	30.26	
211.996	34.58	
216.058	33.91	
220.116	37.23	
224.172	35.24	
228.224	34.58	
232.272	37.89	
236.318	34.58	
240.36	35.9	
244.399	36.9	
248.434	35.57	
252.466	36.23	
256.495	40.21	
260.521	34.24	
264.544	32.92	
268.563	31.26	
272.579	28.94	
276.591	31.59	
280.601	33.25	
284.607	30.93	
288.61	33.58	
292.609	30.6	
296.606	30.26	
300.599	31.26	
304.589	31.92	
308.575	34.58	
312.559	31.26	
316.539	38.22	
320.516	35.24	
324.49	36.56	
328.461	30.6	
332.428	30.93	
336.392	31.92	
340.353	30.6	
344.311	27.28	
348.266	30.93	
352.217	26.95	
356.165	29.6	
360.11	29.27	
364.052	32.92	
367.991	36.9	
371.926	38.55	
375.859	29.6	
379.788	34.24	
383.714	39.22	
387.637	46.18	
391.557	47.84	
395.473	47.51	
399.387	53.15	
403.297	65.42	
407.204	74.37	
411.108	67.41	
415.009	73.71	
418.907	63.43	
422.802	54.47	
426.693	50.49	
430.581	46.18	
434.467	41.21	
438.349	37.23	
442.228	40.88	
446.104	36.23	
449.977	38.55	
453.847	37.89	
457.713	46.51	
461.577	47.51	
465.438	64.42	
469.295	71.72	
473.149	83	
477.001	98.59	
480.849	96.6	
484.694	92.95	
488.536	79.02	
492.375	70.39	
496.211	59.78	
500.044	49.83	
503.874	40.21	
507.701	37.56	
511.525	33.25	
515.346	29.6	
519.163	29.93	
522.978	30.26	
526.79	29.93	
530.598	33.91	
534.404	31.26	
538.207	34.58	
542.006	36.23	
545.803	37.89	
549.596	34.58	
553.387	34.58	
557.175	31.26	
560.959	30.93	
564.741	31.26	
568.519	26.28	
572.295	25.95	
576.068	22.3	
579.837	22.3	
583.604	19.65	
587.368	18.99	
591.128	19.98	
594.886	28.61	
598.641	26.28	
602.393	21.97	
606.142	23.96	
609.887	24.63	
613.63	24.29	
617.37	22.3	
621.108	22.97	
624.842	26.28	
628.573	25.29	
632.301	26.95	
636.027	26.28	
639.749	26.62	
643.468	28.27	
647.185	28.27	
650.899	27.61	
654.609	30.26	
658.317	32.92	
662.022	42.2	
665.724	42.53	
669.423	45.19	
673.119	43.2	
676.813	39.55	
680.503	32.25	
684.191	30.93	
687.875	28.61	
691.557	24.96	
695.236	21.64	
698.912	21.64	
702.585	20.65	
706.256	22.97	
709.923	19.32	
713.588	20.65	
717.249	17.99	
720.908	17.66	
724.564	18.66	
728.217	17.33	
731.868	17.99	
735.515	18.99	
739.16	15.67	
742.801	19.98	
746.44	21.64	
750.076	18.66	
753.71	20.65	
757.34	23.63	
760.968	22.64	
764.593	21.64	
768.215	22.64	
771.834	26.28	
775.45	26.95	
779.064	25.95	
782.675	23.3	
786.283	29.93	
789.888	27.28	
793.49	32.59	
797.09	35.57	
800.686	39.88	
804.281	55.8	
807.872	68.07	
811.46	76.7	
815.046	87.64	
818.629	86.31	
822.209	79.35	
825.786	76.7	
829.361	81.01	
832.933	94.61	
836.502	106.55	
840.068	127.11	
843.632	136.06	
847.193	133.41	
850.751	124.12	
854.306	115.83	
857.859	100.58	
861.409	103.56	
864.956	88.97	
868.5	76.36	
872.042	58.12	
875.581	45.52	
879.117	37.56	
882.651	34.58	
886.182	28.94	
889.71	34.58	
893.235	34.91	
896.758	46.18	
900.278	47.51	
903.795	54.14	
907.31	58.45	
910.822	56.46	
914.331	65.75	
917.838	69.4	
921.341	62.1	
924.843	61.11	
928.341	53.48	
931.837	42.87	
935.33	35.9	
938.821	28.61	
942.308	25.62	
945.793	25.95	
949.276	24.63	
952.756	27.94	
956.233	24.96	
959.707	29.93	
963.179	32.25	
966.649	34.91	
970.115	38.22	
973.579	41.54	
977.04	37.89	
980.499	33.91	
983.955	33.58	
987.408	29.27	
990.859	28.27	
994.307	28.61	
997.753	33.58	
1001.196	36.9	
1004.636	34.58	
1008.074	38.55	
1011.509	45.19	
1014.941	45.52	
1018.371	51.82	
1021.798	58.79	
1025.223	65.09	
1028.645	77.69	
1032.064	83.99	
1035.481	98.59	
1038.896	106.21	
1042.307	115.5	
1045.716	115.83	
1049.123	121.14	
1052.527	124.46	
1055.928	123.46	
1059.327	116.83	
1062.723	121.47	
1066.117	115.5	
1069.508	106.21	
1072.897	103.56	
1076.283	95.6	
1079.666	93.28	
1083.047	91.29	
1086.425	93.28	
1089.801	83.99	
1093.174	85.32	
1096.545	88.64	
1099.913	84.32	
1103.279	96.6	
1106.642	89.3	
1110.002	87.31	
1113.36	83	
1116.716	70.73	
1120.069	67.74	
1123.419	52.15	
1126.767	47.84	
1130.113	43.2	
1133.456	36.57	
1136.796	38.89	
1140.134	32.59	
1143.47	28.61	
1146.802	31.92	
1150.133	31.26	
1153.461	28.94	
1156.786	30.93	
1160.109	33.91	
1163.43	34.91	
1166.748	27.94	
1170.063	31.26	
1173.376	36.57	
1176.687	35.9	
1179.995	33.25	
1183.3	40.21	
1186.603	45.52	
1189.904	38.89	
1193.202	42.87	
1196.498	46.51	
1199.791	51.82	
1203.082	51.16	
1206.37	48.84	
1209.656	49.5	
1212.94	54.81	
1216.221	50.83	
1219.499	56.13	
1222.775	54.47	
1226.049	58.12	
1229.32	66.41	
1232.589	60.78	
1235.856	62.77	
1239.12	72.05	
1242.381	70.73	
1245.64	65.75	
1248.897	72.38	
1252.151	73.71	
1255.403	76.7	
1258.652	70.39	
1261.9	71.06	
1265.144	72.05	
1268.386	73.38	
1271.626	71.06	
1274.864	63.1	
1278.099	63.76	
1281.331	66.08	
1284.562	63.1	
1287.789	62.43	
1291.015	70.39	
1294.238	67.08	
1297.459	62.43	
1300.677	68.07	
1303.893	67.41	
1307.106	68.4	
1310.318	75.37	
1313.526	72.72	
1316.733	71.39	
1319.937	73.71	
1323.139	75.04	
1326.338	77.03	
1329.535	67.74	
1332.73	73.05	
1335.922	75.7	
1339.112	71.72	
1342.3	69.73	
1345.485	72.72	
1348.668	74.71	
1351.848	70.73	
1355.027	73.71	
1358.203	77.69	
1361.376	75.04	
1364.547	73.05	
1367.716	68.4	
1370.883	74.04	
1374.047	76.36	
1377.209	73.05	
1380.369	74.04	
1383.526	68.07	
1386.681	74.04	
1389.834	76.36	
1392.984	66.41	
1396.132	71.72	
1399.278	75.04	
1402.421	67.08	
1405.562	67.41	
1408.701	64.09	
1411.838	65.09	
1414.972	68.4	
1418.104	68.4	
1421.234	69.4	
1424.361	66.08	
1427.486	62.77	
1430.609	61.44	
1433.73	63.76	
1436.848	66.75	
1439.964	72.05	
1443.078	75.04	
1446.189	84.99	
1449.299	92.95	
1452.405	102.23	
1455.51	107.54	
1458.613	112.85	
1461.713	117.82	
1464.811	111.52	
1467.906	98.25	
1471	99.25	
1474.091	81.67	
1477.18	71.39	
1480.267	59.78	
1483.351	50.16	
1486.433	53.48	
1489.513	44.86	
1492.591	41.87	
1495.666	42.53	
1498.74	40.54	
1501.811	39.55	
1504.879	40.54	
1507.946	34.58	
1511.01	37.56	
1514.073	37.23	
1517.132	31.92	
1520.19	32.25	
1523.246	34.58	
1526.299	31.92	
1529.35	29.93	
1532.399	31.92	
1535.446	36.9	
1538.49	30.93	
1541.532	32.25	
1544.572	31.59	
1547.61	29.93	
1550.646	29.93	
1553.68	25.95	
1556.711	28.94	
1559.74	28.27	
1562.767	27.28	
1565.792	24.96	
1568.814	26.62	
1571.835	29.27	
1574.853	26.28	
1577.869	25.95	
1580.883	25.62	
1583.895	21.64	
1586.904	25.62	
1589.912	24.29	
1592.917	22.3	
1595.92	26.28	
1598.921	26.28	
1601.92	27.28	
1604.917	20.98	
1607.911	25.95	
1610.903	27.61	
1613.894	23.3	
1616.882	17	
1619.868	25.95	
1622.851	24.63	
1625.833	21.31	
1628.812	20.65	
1631.79	19.32	
1634.765	24.63	
1637.738	21.97	
1640.709	20.65	
1643.678	20.65	
1646.645	24.29	
1649.609	16.67	
1652.572	23.63	
1655.532	21.31	
1658.49	24.29	
1661.447	24.29	
1664.401	25.62	
1667.353	21.31	
1670.302	19.32	
1673.25	19.98	
1676.196	16.67	
1679.139	24.96	
1682.081	19.98	
1685.02	20.65	
1687.957	16	
1690.893	14.68	
1693.826	22.64	
1696.757	17.66	
1699.686	20.31	
1702.612	16	
1705.537	17	
1708.46	15.67	
1711.38	17.33	
1714.299	18.66	
1717.215	15.34	
1720.13	12.69	
1723.042	13.35	
1725.952	16.33	
1728.86	11.69	
1731.767	15.67	
1734.671	17	
1737.573	17.66	
1740.473	15.01	
1743.37	15.01	
1746.266	12.35	
1749.16	15.67	
1752.052	11.36	
1754.942	14.34	
1757.829	14.01	
1760.715	11.03	
1763.598	16	
1766.48	13.68	
1769.36	15.67	
1772.237	19.98	
1775.112	21.64	
1777.986	14.34	
1780.857	14.34	
1783.727	11.69	
1786.594	11.03	
1789.459	16	
1792.323	12.69	
1795.184	11.36	
1798.043	13.35	
1800.9	14.68	
1803.756	15.67	
1806.609	17.66	
1809.46	11.36	
1812.309	12.69	
1815.157	12.69	
1818.002	10.7	
1820.845	14.34	
1823.686	12.02	
1826.526	9.04	
1829.363	12.69	
1832.198	14.01	
1835.031	13.02	
1837.863	13.02	
1840.692	11.69	
1843.519	13.02	
1846.345	9.37	
1849.168	16.33	
1851.989	12.02	
1854.809	12.35	
1857.626	10.36	
1860.441	12.69	
1863.255	15.01	
1866.066	10.03	
1868.876	14.68	
1871.684	14.01	
1874.489	13.68	
1877.293	12.35	
1880.095	10.7	
1882.894	12.69	
1885.692	12.02	
1888.488	13.35	
1891.282	13.68	
1894.074	12.69	
1896.864	8.71	
1899.652	11.36	
1902.438	9.04	
1905.222	12.35	
1908.004	7.05	
1910.785	11.03	
1913.563	6.38	
1916.339	11.03	
1919.114	9.37	
1921.886	9.37	
1924.657	9.37	
1927.426	9.7	
1930.193	10.36	
1932.957	11.03	
1935.72	6.72	
1938.481	10.36	
1941.24	8.37	
1943.998	7.38	
1946.753	9.37	
1949.506	9.37	
1952.258	6.72	
1955.007	6.38	
1957.755	7.38	
1960.501	9.7	
1963.245	7.05	
1965.986	6.05	
1968.726	4.39	
1971.465	5.06	
1974.201	7.38	
1976.935	6.38	
1979.668	6.38	
1982.398	4.73	
1985.127	4.39	
1987.854	7.05	
1990.579	7.05	
1993.302	4.73	
1996.023	6.72	
1998.742	3.73	
2001.46	2.07	
2004.175	7.38	
2006.889	4.06	
2009.6	3.73	
2012.31	2.4	
2015.018	3.4	
2017.725	3.4	
2020.429	0.41	
2023.131	2.07	
2025.832	3.73	
2028.531	0.08	
2031.228	6.05	
2033.923	4.39	
2036.616	6.38	
2039.307	5.39	
2041.997	3.4	
2044.684	4.73	
2047.37	1.74	
2050.054	4.06	
2052.736	1.08	
2055.416	1.08	
2058.095	6.05	
2060.771	2.74	
2063.446	3.07	
2066.119	3.73	
2068.79	2.07	
2071.459	-2.24	
2074.127	1.41	
2076.792	3.07	
2079.456	4.39	
2082.118	-0.58	
2084.778	3.07	
2087.436	3.4	
2090.093	2.74	
2092.747	0.08	
2095.4	4.06	
2098.051	3.73	
2100.7	0.75	
2103.348	2.74	
2105.993	-0.91	
2108.637	0.75	
2111.279	4.39	
2113.919	3.4	
2116.558	2.07	
2119.194	2.07	
2121.829	1.08	
2124.462	0.08	
2127.093	-0.58	
2129.723	-0.58	
2132.35	4.06	
2134.976	3.07	
2137.6	1.74	
2140.223	1.08	
2142.843	3.07	
2145.462	1.41	
2148.079	-1.58	
2150.694	1.74	
2153.307	5.39	
2155.919	-1.58	
2158.528	-2.57	
2161.137	1.08	
2163.743	5.06	
2166.347	5.06	
2168.95	0.08	
2171.551	1.74	
2174.15	-0.25	
2176.748	2.74	
2179.343	3.07	
2181.937	-0.58	
2184.529	3.73	
2187.12	0.41	
2189.708	3.07	
2192.295	-1.24	
2194.88	-0.58	
2197.464	2.74	
2200.045	4.06	
2202.625	-1.91	
2205.203	1.74	
2207.78	0.08	
2210.355	-1.58	
2212.928	1.74	
2215.499	2.07	
2218.068	2.07	
2220.636	6.72	
2223.202	0.08	
2225.766	-1.58	
2228.329	0.75	
2230.889	1.41	
2233.449	0.41	
2236.006	0.08	
2238.562	1.74	
2241.115	1.08	
2243.668	-3.57	
2246.218	0.08	
2248.767	2.74	
2251.314	-0.58	
2253.859	2.07	
2256.403	0.75	
2258.945	-1.91	
2261.485	2.07	
2264.023	0.08	
2266.56	1.41	
2269.095	1.74	
2271.629	-3.57	
2274.16	0.75	
2276.69	0.41	
2279.219	-0.91	
2281.745	-1.58	
2284.27	0.08	
2286.793	0.75	
2289.315	-2.57	
2291.835	-2.24	
2294.353	0.08	
2296.869	-1.58	
2299.384	0.41	
2301.897	0.75	
2304.408	-0.91	
2306.918	5.06	
2309.426	0.75	
2311.932	1.08	
2314.437	4.73	
2316.94	0.41	
2319.441	2.07	
2321.941	0.75	
2324.439	0.75	
2326.935	-1.24	
2329.43	1.41	
2331.923	1.41	
2334.414	1.41	
2336.904	1.74	
2339.392	1.74	
2341.878	1.41	
2344.363	-1.91	
2346.846	0.41	
2349.328	0.75	
2351.807	2.74	
2354.285	2.4	
2356.762	2.07	
2359.237	-1.91	
2361.71	0.75	
2364.181	-0.91	
2366.651	-0.25	
2369.119	-0.58	
2371.586	-0.58	
2374.051	-0.25	
2376.514	-0.91	
2378.976	3.73	
2381.436	1.41	
2383.894	0.08	
2386.351	3.4	
2388.806	1.74	
2391.259	-0.25	
2393.711	-0.25	
2396.161	3.07	
2398.61	-0.91	
2401.057	1.41	
2403.502	-0.58	
2405.946	-0.58	
2408.388	-1.91	
2410.829	0.08	
2413.268	-0.58	
2415.705	-1.58	
2418.141	5.06	
2420.575	0.75	
2423.007	0.41	
2425.438	-0.91	
2427.867	-0.25	
2430.295	3.07	
2432.721	2.07	
2435.145	1.41	
2437.568	-1.58	
2439.989	0.41	
2442.409	3.73	
2444.827	2.07	
2447.243	1.74	
2449.658	0.75	
2452.071	1.08	
2454.483	1.08	
2456.893	2.4	
2459.302	-1.24	
2461.709	0.41	
2464.114	-2.9	
2466.518	0.41	
2468.92	1.41	
2471.32	2.07	
2473.719	1.41	
2476.117	3.07	
2478.512	2.74	
2480.907	0.08	
2483.299	0.75	
2485.691	-0.58	
2488.08	0.41	
2490.468	1.08	
2492.854	-2.57	
2495.239	1.41	
2497.623	1.08	
2500.004	-2.24	
2502.384	0.41	
2504.763	-2.57	
2507.14	1.41	
2509.515	1.41	
2511.889	-0.25	
2514.262	3.73	
2516.633	-0.25	
2519.002	3.4	
2521.369	2.07	
2523.736	1.74	
2526.1	1.74	
2528.463	2.74	
2530.825	1.74	
2533.185	1.41	
2535.543	3.4	
2537.9	2.74	
2540.255	-0.25	
2542.609	-0.25	
2544.961	0.41	
2547.312	-4.23	
2549.661	-0.25	
2552.009	0.41	
2554.355	-0.25	
2556.7	0.41	
2559.043	0.08	
2561.384	1.74	
2563.724	-0.58	
2566.063	-0.25	
2568.4	2.74	
2570.735	2.07	
2573.069	3.07	
2575.402	1.41	
2577.733	1.74	
2580.062	4.39	
2582.39	2.4	
2584.716	0.08	
2587.041	0.41	
2589.364	0.41	
2591.686	-1.91	
2594.006	4.06	
2596.325	5.39	
2598.643	0.41	
2600.958	1.08	
2603.273	1.08	
2605.585	0.75	
2607.897	1.08	
2610.206	3.4	
2612.515	-0.58	
2614.822	2.4	
2617.127	-1.91	
2619.431	2.4	
2621.733	4.06	
2624.034	0.41	
2626.333	0.75	
2628.631	2.74	
2630.927	0.41	
2633.222	-0.25	
2635.515	3.73	
2637.807	2.74	
2640.098	3.07	
2642.387	2.4	
2644.674	-1.58	
2646.96	2.74	
2649.245	1.08	
2651.528	1.08	
2653.809	3.73	
2656.089	2.07	
2658.368	1.41	
2660.645	3.07	
2662.921	3.4	
2665.195	2.07	
2667.468	4.73	
2669.739	3.73	
2672.009	3.4	
2674.277	4.73	
2676.544	3.73	
2678.809	-0.58	
2681.073	2.74	
2683.336	3.4	
2685.597	3.73	
2687.856	2.4	
2690.115	2.4	
2692.371	5.06	
2694.626	2.07	
2696.88	6.38	
2699.133	5.06	
2701.383	4.06	
2703.633	4.06	
2705.881	5.06	
2708.127	4.06	
2710.373	6.72	
2712.616	0.75	
2714.859	3.73	
2717.099	6.05	
2719.339	3.07	
2721.577	6.05	
2723.813	5.72	
2726.048	5.39	
2728.282	8.37	
2730.514	6.05	
2732.745	7.05	
2734.974	5.39	
2737.202	6.72	
2739.428	8.71	
2741.653	9.37	
2743.877	4.06	
2746.099	8.04	
2748.32	7.05	
2750.539	9.37	
2752.757	10.03	
2754.974	7.71	
2757.189	4.73	
2759.403	7.05	
2761.615	8.71	
2763.826	10.7	
2766.035	8.37	
2768.243	7.05	
2770.45	8.37	
2772.655	6.05	
2774.859	8.37	
2777.062	5.72	
2779.263	8.37	
2781.462	9.37	
2783.66	8.71	
2785.857	8.04	
2788.053	8.04	
2790.247	11.36	
2792.439	10.36	
2794.631	8.37	
2796.82	11.36	
2799.009	10.36	
2801.196	9.04	
2803.382	13.68	
2805.566	13.68	
2807.749	12.35	
2809.93	10.03	
2812.11	11.36	
2814.289	14.01	
2816.466	13.35	
2818.642	16.67	
2820.817	14.34	
2822.99	19.32	
2825.162	14.34	
2827.332	15.01	
2829.502	17.33	
2831.669	20.31	
2833.836	17.33	
2836	19.32	
2838.164	18.32	
2840.326	20.31	
2842.487	20.31	
2844.647	25.95	
2846.805	26.95	
2848.961	27.94	
2851.117	28.27	
2853.271	26.62	
2855.423	31.26	
2857.575	29.93	
2859.725	31.26	
2861.873	33.91	
2864.02	37.23	
2866.166	43.2	
2868.311	37.56	
2870.454	38.22	
2872.596	44.86	
2874.736	42.53	
2876.875	47.51	
2879.013	48.84	
2881.149	50.83	
2883.284	52.82	
2885.418	51.82	
2887.551	56.46	
2889.682	50.49	
2891.811	48.84	
2893.94	50.83	
2896.067	50.83	
2898.192	51.16	
2900.317	45.85	
2902.439	48.17	
2904.561	48.17	
2906.681	46.18	
2908.8	46.85	
2910.918	44.52	
2913.034	47.84	
2915.149	46.85	
2917.263	45.52	
2919.375	42.53	
2921.486	45.19	
2923.596	43.86	
2925.704	44.52	
2927.811	45.52	
2929.917	40.21	
2932.021	44.19	
2934.124	41.21	
2936.226	42.2	
2938.327	46.85	
2940.426	45.19	
2942.524	47.18	
2944.62	42.87	
2946.715	40.54	
2948.809	40.88	
2950.902	44.52	
2952.993	36.56	
2955.083	34.91	
2957.171	36.23	
2959.259	32.25	
2961.345	34.91	
2963.429	32.92	
2965.513	30.26	
2967.595	26.28	
2969.676	24.96	
2971.755	26.95	
2973.833	23.96	
2975.91	21.97	
2977.986	19.98	
2980.06	21.31	
2982.133	13.35	
2984.205	15.34	
2986.275	20.65	
2988.345	12.35	
2990.412	11.36	
2992.479	12.35	
2994.544	9.7	
2996.608	10.36	
2998.671	6.38	
3000.732	6.38	
3002.792	7.05	
3004.851	5.06	
3006.909	4.06	
3008.965	5.39	
3011.02	5.06	
3013.074	3.73	
3015.126	0.75	
3017.177	6.05	
3019.227	1.74	
3021.276	1.08	
3023.323	4.39	
3025.369	5.72	
3027.414	5.06	
3029.458	3.73	
3031.5	2.4	
3033.541	2.07	
3035.581	4.73	
3037.619	1.74	
3039.656	5.06	
3041.692	3.4	
3043.727	1.41	
3045.76	2.4	
3047.793	3.73	
3049.824	2.74	
3051.853	0.08	
3053.882	-0.58	
3055.909	1.41	
