RamanShift:204		
0.351	-898.54	
4.587	-106.76	
8.82	-40.42	
13.049	-22.84	
17.275	-16.54	
21.497	-9.91	
25.716	-10.57	
29.931	-7.25	
34.142	-10.24	
38.351	-5.93	
42.555	-4.93	
46.756	-0.29	
50.954	-4.6	
55.148	0.7	
59.339	-2.28	
63.527	-3.28	
67.71	-2.28	
71.891	-0.95	
76.068	-1.29	
80.241	-0.62	
84.411	-1.29	
88.578	1.37	
92.741	2.03	
96.901	4.68	
101.057	5.68	
105.21	9	
109.359	8	
113.505	8.66	
117.648	10.65	
121.787	12.64	
125.923	10.32	
130.055	14.97	
134.184	15.96	
138.31	15.96	
142.432	19.94	
146.551	20.94	
150.667	24.25	
154.779	20.94	
158.887	25.91	
162.993	29.23	
167.095	29.56	
171.193	29.56	
175.289	31.55	
179.381	29.23	
183.469	27.57	
187.554	29.23	
191.636	27.24	
195.715	27.24	
199.79	25.25	
203.862	21.6	
207.931	21.27	
211.996	18.61	
216.058	13.64	
220.116	17.62	
224.172	14.3	
228.224	13.31	
232.272	15.96	
236.318	11.98	
240.36	18.61	
244.399	7.67	
248.434	8	
252.466	9	
256.495	6.67	
260.521	8.66	
264.544	2.36	
268.563	4.68	
272.579	9	
276.591	7.34	
280.601	-1.95	
284.607	1.7	
288.61	6.01	
292.609	8.33	
296.606	3.36	
300.599	4.02	
304.589	7.01	
308.575	-0.29	
312.559	8.33	
316.539	6.67	
320.516	2.03	
324.49	-0.29	
328.461	2.69	
332.428	3.03	
336.392	-2.28	
340.353	3.36	
344.311	2.36	
348.266	-2.61	
352.217	-0.29	
356.165	1.7	
360.11	4.35	
364.052	3.03	
367.991	1.37	
371.926	6.67	
375.859	5.02	
379.788	6.01	
383.714	5.02	
387.637	0.37	
391.557	6.67	
395.473	9.66	
399.387	6.34	
403.297	18.28	
407.204	14.63	
411.108	12.64	
415.009	10.32	
418.907	14.3	
422.802	12.31	
426.693	13.64	
430.581	12.98	
434.467	20.94	
438.349	30.22	
442.228	33.21	
446.104	34.53	
449.977	27.9	
453.847	24.92	
457.713	17.29	
461.577	19.28	
465.438	21.93	
469.295	18.28	
473.149	18.61	
477.001	21.27	
480.849	21.93	
484.694	22.59	
488.536	19.61	
492.375	12.64	
496.211	11.32	
500.044	7.34	
503.874	9.66	
507.701	5.68	
511.525	9	
515.346	5.68	
519.163	8.66	
522.978	8.33	
526.79	5.35	
530.598	0.7	
534.404	4.35	
538.207	3.36	
542.006	3.36	
545.803	9.33	
549.596	6.34	
553.387	5.35	
557.175	8	
560.959	11.65	
564.741	15.63	
568.519	16.96	
572.295	13.64	
576.068	21.6	
579.837	24.92	
583.604	28.56	
587.368	35.86	
591.128	38.18	
594.886	41.5	
598.641	43.49	
602.393	47.47	
606.142	55.43	
609.887	61.07	
613.63	66.71	
617.37	70.02	
621.108	51.12	
624.842	38.51	
628.573	26.91	
632.301	20.94	
636.027	13.31	
639.749	13.31	
643.468	10.99	
647.185	10.65	
650.899	-1.62	
654.609	10.99	
658.317	6.34	
662.022	2.69	
665.724	13.31	
669.423	6.01	
673.119	12.98	
676.813	6.34	
680.503	1.7	
684.191	-0.62	
687.875	-0.29	
691.557	3.03	
695.236	-3.28	
698.912	1.7	
702.585	0.7	
706.256	1.04	
709.923	-1.29	
713.588	4.68	
717.249	-3.61	
720.908	-2.94	
724.564	-5.27	
728.217	3.69	
731.868	-0.95	
735.515	1.37	
739.16	0.04	
742.801	0.04	
746.44	-4.27	
750.076	3.36	
753.71	0.7	
757.34	5.02	
760.968	-1.62	
764.593	1.7	
768.215	4.35	
771.834	1.37	
775.45	9.33	
779.064	2.36	
782.675	3.69	
786.283	8	
789.888	11.32	
793.49	9	
797.09	9.33	
800.686	11.98	
804.281	17.62	
807.872	25.91	
811.46	25.91	
815.046	30.22	
818.629	30.89	
822.209	28.23	
825.786	30.55	
829.361	38.85	
832.933	44.82	
836.502	61.73	
840.068	64.05	
843.632	74	
847.193	79.31	
850.751	79.31	
854.306	82.29	
857.859	90.92	
861.409	95.23	
864.956	109.16	
868.5	123.75	
872.042	141.99	
875.581	179.14	
879.117	216.95	
882.651	258.41	
886.182	287.27	
889.71	270.02	
893.235	223.92	
896.758	150.29	
900.278	95.56	
903.795	65.05	
907.31	48.13	
910.822	36.86	
914.331	27.24	
917.838	25.58	
921.341	25.91	
924.843	23.26	
928.341	15.3	
931.837	11.65	
935.33	13.97	
938.821	7.67	
942.308	5.68	
945.793	5.35	
949.276	7.01	
952.756	11.65	
956.233	9	
959.707	7.01	
963.179	6.34	
966.649	9	
970.115	11.98	
973.579	8	
977.04	9.33	
980.499	8	
983.955	6.67	
987.408	10.99	
990.859	15.63	
994.307	12.31	
997.753	15.63	
1001.196	14.3	
1004.636	21.6	
1008.074	20.27	
1011.509	20.6	
1014.941	20.94	
1018.371	21.6	
1021.798	16.96	
1025.223	18.28	
1028.645	20.6	
1032.064	25.25	
1035.481	25.58	
1038.896	28.23	
1042.307	27.9	
1045.716	28.23	
1049.123	31.55	
1052.527	29.89	
1055.928	26.24	
1059.327	27.24	
1062.723	29.89	
1066.117	22.93	
1069.508	22.59	
1072.897	21.6	
1076.283	16.29	
1079.666	15.3	
1083.047	19.61	
1086.425	16.62	
1089.801	16.96	
1093.174	15.96	
1096.545	19.61	
1099.913	15.3	
1103.279	19.94	
1106.642	18.61	
1110.002	16.96	
1113.36	10.65	
1116.716	11.32	
1120.069	8.33	
1123.419	9.33	
1126.767	3.69	
1130.113	2.03	
1133.456	6.01	
1136.796	-2.61	
1140.134	1.04	
1143.47	-7.59	
1146.802	0.7	
1150.133	-2.61	
1153.461	4.02	
1156.786	3.03	
1160.109	4.68	
1163.43	3.69	
1166.748	3.03	
1170.063	-2.61	
1173.376	1.04	
1176.687	9	
1179.995	8.33	
1183.3	7.67	
1186.603	7.01	
1189.904	7.67	
1193.202	8	
1196.498	7.01	
1199.791	10.32	
1203.082	10.99	
1206.37	7.34	
1209.656	7.01	
1212.94	9.33	
1216.221	9.33	
1219.499	13.31	
1222.775	15.63	
1226.049	14.3	
1229.32	16.62	
1232.589	14.97	
1235.856	18.28	
1239.12	17.62	
1242.381	14.63	
1245.64	13.31	
1248.897	25.58	
1252.151	22.93	
1255.403	18.28	
1258.652	22.26	
1261.9	24.58	
1265.144	22.59	
1268.386	18.95	
1271.626	22.59	
1274.864	28.23	
1278.099	21.27	
1281.331	15.3	
1284.562	15.3	
1287.789	14.97	
1291.015	20.6	
1294.238	15.96	
1297.459	23.92	
1300.677	22.59	
1303.893	22.26	
1307.106	21.93	
1310.318	15.3	
1313.526	17.29	
1316.733	18.95	
1319.937	20.6	
1323.139	25.91	
1326.338	24.58	
1329.535	24.92	
1332.73	26.24	
1335.922	25.91	
1339.112	22.93	
1342.3	24.58	
1345.485	27.57	
1348.668	31.88	
1351.848	34.2	
1355.027	35.2	
1358.203	36.52	
1361.376	33.87	
1364.547	28.9	
1367.716	31.88	
1370.883	30.55	
1374.047	37.85	
1377.209	21.93	
1380.369	29.23	
1383.526	28.23	
1386.681	38.18	
1389.834	31.55	
1392.984	30.89	
1396.132	29.56	
1399.278	38.51	
1402.421	33.21	
1405.562	44.48	
1408.701	39.51	
1411.838	42.49	
1414.972	44.82	
1418.104	47.8	
1421.234	45.48	
1424.361	49.79	
1427.486	47.47	
1430.609	47.47	
1433.73	50.79	
1436.848	41.83	
1439.964	45.81	
1443.078	41.5	
1446.189	43.82	
1449.299	44.48	
1452.405	41.83	
1455.51	35.2	
1458.613	44.82	
1461.713	41.17	
1464.811	35.2	
1467.906	35.86	
1471	22.26	
1474.091	24.92	
1477.18	15.96	
1480.267	27.24	
1483.351	11.65	
1486.433	11.98	
1489.513	8	
1492.591	9	
1495.666	11.32	
1498.74	7.67	
1501.811	9.99	
1504.879	9.66	
1507.946	12.31	
1511.01	2.69	
1514.073	6.67	
1517.132	6.34	
1520.19	6.34	
1523.246	10.32	
1526.299	3.03	
1529.35	8	
1532.399	6.01	
1535.446	6.67	
1538.49	7.01	
1541.532	3.03	
1544.572	4.02	
1547.61	7.67	
1550.646	3.69	
1553.68	-0.62	
1556.711	7.67	
1559.74	5.02	
1562.767	7.01	
1565.792	4.68	
1568.814	8	
1571.835	6.34	
1574.853	7.01	
1577.869	4.35	
1580.883	-0.29	
1583.895	3.03	
1586.904	3.36	
1589.912	5.68	
1592.917	7.34	
1595.92	5.68	
1598.921	6.67	
1601.92	4.35	
1604.917	4.02	
1607.911	9.33	
1610.903	5.35	
1613.894	7.34	
1616.882	12.31	
1619.868	9	
1622.851	7.34	
1625.833	6.67	
1628.812	12.98	
1631.79	14.3	
1634.765	15.3	
1637.738	13.97	
1640.709	15.96	
1643.678	20.27	
1646.645	21.27	
1649.609	21.6	
1652.572	27.57	
1655.532	28.56	
1658.49	31.22	
1661.447	33.21	
1664.401	33.54	
1667.353	36.86	
1670.302	33.21	
1673.25	33.54	
1676.196	35.53	
1679.139	31.55	
1682.081	34.2	
1685.02	31.55	
1687.957	40.5	
1690.893	31.55	
1693.826	36.19	
1696.757	37.85	
1699.686	35.2	
1702.612	37.85	
1705.537	37.85	
1708.46	30.55	
1711.38	31.55	
1714.299	28.23	
1717.215	25.25	
1720.13	26.57	
1723.042	26.24	
1725.952	13.64	
1728.86	20.94	
1731.767	18.95	
1734.671	12.31	
1737.573	14.63	
1740.473	9	
1743.37	8.33	
1746.266	12.31	
1749.16	4.35	
1752.052	8.66	
1754.942	8.66	
1757.829	8.66	
1760.715	9.99	
1763.598	4.68	
1766.48	4.02	
1769.36	4.68	
1772.237	5.02	
1775.112	-6.92	
1777.986	2.03	
1780.857	3.69	
1783.727	-0.95	
1786.594	-2.61	
1789.459	-5.6	
1792.323	1.04	
1795.184	1.7	
1798.043	-4.6	
1800.9	-4.93	
1803.756	-4.27	
1806.609	0.04	
1809.46	1.04	
1812.309	-1.29	
1815.157	1.37	
1818.002	-0.62	
1820.845	1.04	
1823.686	0.04	
1826.526	-0.29	
1829.363	-3.28	
1832.198	-0.29	
1835.031	-2.94	
1837.863	-1.29	
1840.692	-6.59	
1843.519	0.37	
1846.345	0.37	
1849.168	-0.29	
1851.989	-2.28	
1854.809	-4.6	
1857.626	-1.95	
1860.441	-1.29	
1863.255	-7.92	
1866.066	0.04	
1868.876	-2.94	
1871.684	-3.61	
1874.489	-0.62	
1877.293	-0.29	
1880.095	-6.59	
1882.894	-1.29	
1885.692	-0.29	
1888.488	-0.62	
1891.282	0.04	
1894.074	-1.95	
1896.864	-2.61	
1899.652	-5.93	
1902.438	-3.28	
1905.222	-7.25	
1908.004	-0.62	
1910.785	-1.29	
1913.563	-2.94	
1916.339	-3.94	
1919.114	-3.61	
1921.886	-4.6	
1924.657	-1.62	
1927.426	-4.27	
1930.193	-1.95	
1932.957	-3.61	
1935.72	-0.62	
1938.481	-2.28	
1941.24	-4.27	
1943.998	-4.93	
1946.753	-1.29	
1949.506	-4.6	
1952.258	-3.28	
1955.007	-2.28	
1957.755	-1.95	
1960.501	0.37	
1963.245	2.36	
1965.986	-0.62	
1968.726	-4.27	
1971.465	-3.61	
1974.201	0.7	
1976.935	-4.93	
1979.668	-1.62	
1982.398	1.37	
1985.127	-1.29	
1987.854	-1.29	
1990.579	-4.93	
1993.302	-0.95	
1996.023	0.04	
1998.742	-8.25	
2001.46	2.03	
2004.175	-1.95	
2006.889	0.37	
2009.6	0.37	
2012.31	-2.61	
2015.018	-0.29	
2017.725	1.37	
2020.429	-0.62	
2023.131	-3.94	
2025.832	-4.27	
2028.531	-0.95	
2031.228	-2.61	
2033.923	0.04	
2036.616	-4.6	
2039.307	-1.95	
2041.997	-3.61	
2044.684	-3.61	
2047.37	0.04	
2050.054	-5.27	
2052.736	-5.27	
2055.416	-2.94	
2058.095	-0.29	
2060.771	-1.62	
2063.446	-0.62	
2066.119	-3.28	
2068.79	-1.62	
2071.459	-6.26	
2074.127	-8.25	
2076.792	0.37	
2079.456	-5.6	
2082.118	1.37	
2084.778	-1.29	
2087.436	-1.62	
2090.093	-4.93	
2092.747	-4.6	
2095.4	-6.26	
2098.051	-2.28	
2100.7	-3.94	
2103.348	-4.6	
2105.993	-4.6	
2108.637	-4.27	
2111.279	-5.6	
2113.919	-4.6	
2116.558	-2.94	
2119.194	-2.61	
2121.829	-2.28	
2124.462	-1.62	
2127.093	-3.28	
2129.723	-3.94	
2132.35	-5.27	
2134.976	-5.93	
2137.6	-5.27	
2140.223	-4.93	
2142.843	-3.28	
2145.462	-0.29	
2148.079	-2.94	
2150.694	-1.95	
2153.307	-2.28	
2155.919	-5.93	
2158.528	-2.94	
2161.137	-0.29	
2163.743	-2.61	
2166.347	-4.6	
2168.95	-4.6	
2171.551	-7.25	
2174.15	-2.61	
2176.748	0.04	
2179.343	-3.94	
2181.937	-8.91	
2184.529	-3.61	
2187.12	-1.62	
2189.708	-4.27	
2192.295	-5.27	
2194.88	-2.28	
2197.464	-2.28	
2200.045	-0.62	
2202.625	-2.28	
2205.203	-0.29	
2207.78	-0.29	
2210.355	-2.61	
2212.928	0.04	
2215.499	-1.95	
2218.068	-2.61	
2220.636	-4.27	
2223.202	-5.6	
2225.766	-0.29	
2228.329	-2.61	
2230.889	-4.27	
2233.449	-3.28	
2236.006	-6.26	
2238.562	-4.6	
2241.115	-0.62	
2243.668	-3.28	
2246.218	-3.28	
2248.767	-3.61	
2251.314	-3.94	
2253.859	1.7	
2256.403	-2.61	
2258.945	-3.28	
2261.485	-5.93	
2264.023	-6.26	
2266.56	-4.6	
2269.095	-8.25	
2271.629	-4.27	
2274.16	-4.93	
2276.69	-5.27	
2279.219	-1.95	
2281.745	-6.26	
2284.27	0.04	
2286.793	-1.95	
2289.315	-0.95	
2291.835	-3.61	
2294.353	-5.27	
2296.869	-4.27	
2299.384	-3.61	
2301.897	-3.28	
2304.408	-2.94	
2306.918	-4.27	
2309.426	-4.93	
2311.932	-3.94	
2314.437	-3.28	
2316.94	-5.93	
2319.441	-0.62	
2321.941	-3.61	
2324.439	-4.93	
2326.935	-0.62	
2329.43	-1.29	
2331.923	-3.61	
2334.414	-2.28	
2336.904	-7.25	
2339.392	-2.61	
2341.878	-3.61	
2344.363	-5.6	
2346.846	-5.27	
2349.328	-6.59	
2351.807	-3.94	
2354.285	-2.61	
2356.762	-1.95	
2359.237	-2.28	
2361.71	1.04	
2364.181	-3.94	
2366.651	-2.61	
2369.119	-0.95	
2371.586	1.04	
2374.051	-0.62	
2376.514	-8.58	
2378.976	-2.61	
2381.436	-5.27	
2383.894	-7.25	
2386.351	-5.27	
2388.806	-6.92	
2391.259	-3.28	
2393.711	-6.26	
2396.161	-5.6	
2398.61	-4.93	
2401.057	-1.95	
2403.502	-2.94	
2405.946	-0.95	
2408.388	-4.93	
2410.829	-2.61	
2413.268	-2.61	
2415.705	-2.94	
2418.141	-6.59	
2420.575	-4.6	
2423.007	-4.6	
2425.438	-2.94	
2427.867	-5.27	
2430.295	-5.93	
2432.721	-6.26	
2435.145	0.7	
2437.568	-5.27	
2439.989	-6.92	
2442.409	-9.91	
2444.827	-6.26	
2447.243	-3.28	
2449.658	-0.62	
2452.071	-3.28	
2454.483	-4.93	
2456.893	-2.94	
2459.302	-2.61	
2461.709	-8.25	
2464.114	-4.6	
2466.518	-4.27	
2468.92	-3.28	
2471.32	-6.26	
2473.719	-6.59	
2476.117	-1.95	
2478.512	-5.27	
2480.907	-0.95	
2483.299	-6.26	
2485.691	-7.25	
2488.08	-3.61	
2490.468	-4.93	
2492.854	-0.29	
2495.239	-5.93	
2497.623	-3.61	
2500.004	-4.6	
2502.384	-5.6	
2504.763	-2.94	
2507.14	-0.29	
2509.515	-4.93	
2511.889	-6.26	
2514.262	-7.25	
2516.633	-3.28	
2519.002	-6.26	
2521.369	-5.27	
2523.736	-2.61	
2526.1	-4.93	
2528.463	-5.93	
2530.825	-5.93	
2533.185	-3.94	
2535.543	-3.61	
2537.9	-3.94	
2540.255	-5.6	
2542.609	-7.92	
2544.961	-3.94	
2547.312	-4.93	
2549.661	-6.26	
2552.009	-3.94	
2554.355	-2.28	
2556.7	-7.25	
2559.043	-6.59	
2561.384	-4.93	
2563.724	-4.27	
2566.063	-2.61	
2568.4	-1.29	
2570.735	-0.95	
2573.069	-6.59	
2575.402	-2.94	
2577.733	-2.61	
2580.062	-6.92	
2582.39	-2.94	
2584.716	-1.29	
2587.041	-6.26	
2589.364	-3.28	
2591.686	-3.61	
2594.006	-3.61	
2596.325	-4.93	
2598.643	-6.59	
2600.958	-4.93	
2603.273	-7.92	
2605.585	-5.6	
2607.897	0.37	
2610.206	-5.93	
2612.515	-4.27	
2614.822	-3.94	
2617.127	-1.62	
2619.431	-5.27	
2621.733	-6.92	
2624.034	-4.27	
2626.333	-4.6	
2628.631	-3.61	
2630.927	-5.6	
2633.222	-3.94	
2635.515	-5.6	
2637.807	-2.94	
2640.098	-6.59	
2642.387	-6.26	
2644.674	-3.94	
2646.96	-7.59	
2649.245	-4.6	
2651.528	-6.26	
2653.809	-4.93	
2656.089	-3.94	
2658.368	-1.95	
2660.645	-3.28	
2662.921	-4.6	
2665.195	-4.93	
2667.468	-5.27	
2669.739	-1.29	
2672.009	-2.61	
2674.277	-6.26	
2676.544	-1.62	
2678.809	-2.61	
2681.073	-0.95	
2683.336	-7.25	
2685.597	-4.93	
2687.856	-5.6	
2690.115	-0.29	
2692.371	-2.94	
2694.626	-1.95	
2696.88	-3.28	
2699.133	-0.29	
2701.383	-3.28	
2703.633	-0.62	
2705.881	-3.28	
2708.127	-4.27	
2710.373	0.37	
2712.616	1.04	
2714.859	-2.28	
2717.099	-4.93	
2719.339	-5.27	
2721.577	-0.29	
2723.813	-3.94	
2726.048	-2.61	
2728.282	-1.95	
2730.514	-2.28	
2732.745	-1.95	
2734.974	-1.62	
2737.202	-3.61	
2739.428	-0.95	
2741.653	2.03	
2743.877	-0.62	
2746.099	0.7	
2748.32	-1.29	
2750.539	-3.28	
2752.757	0.7	
2754.974	-2.61	
2757.189	-1.62	
2759.403	-2.28	
2761.615	0.37	
2763.826	1.7	
2766.035	-0.29	
2768.243	-1.95	
2770.45	0.37	
2772.655	-1.29	
2774.859	-1.62	
2777.062	-4.27	
2779.263	-1.62	
2781.462	-1.29	
2783.66	2.36	
2785.857	2.69	
2788.053	-0.62	
2790.247	-0.95	
2792.439	2.69	
2794.631	-1.95	
2796.82	1.37	
2799.009	0.37	
2801.196	2.03	
2803.382	2.03	
2805.566	1.37	
2807.749	4.02	
2809.93	3.36	
2812.11	2.03	
2814.289	0.37	
2816.466	1.7	
2818.642	0.37	
2820.817	3.36	
2822.99	6.01	
2825.162	4.02	
2827.332	3.03	
2829.502	0.04	
2831.669	5.35	
2833.836	2.03	
2836	7.01	
2838.164	4.68	
2840.326	6.34	
2842.487	4.35	
2844.647	5.68	
2846.805	7.01	
2848.961	8	
2851.117	6.34	
2853.271	5.02	
2855.423	9.66	
2857.575	9.99	
2859.725	11.32	
2861.873	10.99	
2864.02	12.31	
2866.166	10.32	
2868.311	9.33	
2870.454	12.64	
2872.596	9.66	
2874.736	8.66	
2876.875	11.65	
2879.013	15.63	
2881.149	15.63	
2883.284	18.61	
2885.418	16.62	
2887.551	18.61	
2889.682	26.57	
2891.811	23.26	
2893.94	26.91	
2896.067	27.24	
2898.192	31.88	
2900.317	26.57	
2902.439	31.22	
2904.561	30.22	
2906.681	27.57	
2908.8	30.89	
2910.918	34.2	
2913.034	33.87	
2915.149	33.87	
2917.263	33.54	
2919.375	39.18	
2921.486	38.85	
2923.596	42.49	
2925.704	47.8	
2927.811	47.14	
2929.917	47.14	
2932.021	56.75	
2934.124	57.09	
2936.226	65.38	
2938.327	67.37	
2940.426	73.34	
2942.524	71.02	
2944.62	69.36	
2946.715	68.36	
2948.809	63.72	
2950.902	53.11	
2952.993	49.79	
2955.083	45.81	
2957.171	43.82	
2959.259	37.85	
2961.345	34.53	
2963.429	30.89	
2965.513	31.22	
2967.595	27.57	
2969.676	25.91	
2971.755	27.57	
2973.833	25.58	
2975.91	22.26	
2977.986	22.93	
2980.06	20.94	
2982.133	21.93	
2984.205	18.95	
2986.275	16.96	
2988.345	13.97	
2990.412	15.3	
2992.479	17.62	
2994.544	17.29	
2996.608	10.65	
2998.671	13.97	
3000.732	9.99	
3002.792	12.31	
3004.851	13.31	
3006.909	11.32	
3008.965	9.33	
3011.02	9.99	
3013.074	11.98	
3015.126	11.32	
3017.177	11.32	
3019.227	9	
3021.276	9	
3023.323	9.99	
3025.369	11.98	
3027.414	7.01	
3029.458	8	
3031.5	5.68	
3033.541	8.66	
3035.581	8.33	
3037.619	4.02	
3039.656	8	
3041.692	5.02	
3043.727	4.68	
3045.76	8.66	
3047.793	2.69	
3049.824	5.02	
3051.853	-0.29	
3053.882	3.36	
3055.909	-0.62	
