RamanShift:204		
0.351	48.98	
4.587	7.5	
8.82	2.53	
13.049	-2.78	
17.275	-5.1	
21.497	-4.1	
25.716	1.53	
29.931	-2.11	
34.142	3.86	
38.351	0.54	
42.555	-1.12	
46.756	-4.77	
50.954	2.53	
55.148	4.85	
59.339	-0.12	
63.527	1.2	
67.71	2.2	
71.891	0.54	
76.068	-0.79	
80.241	-2.78	
84.411	2.86	
88.578	-0.46	
92.741	1.2	
96.901	0.21	
101.057	-1.78	
105.21	1.87	
109.359	0.87	
113.505	3.52	
117.648	2.53	
121.787	4.52	
125.923	7.84	
130.055	8.83	
134.184	7.17	
138.31	8.17	
142.432	6.18	
146.551	12.15	
150.667	10.49	
154.779	11.15	
158.887	15.8	
162.993	11.48	
167.095	19.11	
171.193	18.45	
175.289	19.44	
179.381	20.44	
183.469	19.11	
187.554	24.75	
191.636	24.75	
195.715	29.06	
199.79	27.4	
203.862	30.06	
207.931	32.38	
211.996	30.39	
216.058	29.39	
220.116	27.07	
224.172	34.37	
228.224	35.69	
232.272	32.05	
236.318	31.38	
240.36	37.68	
244.399	31.71	
248.434	31.71	
252.466	34.37	
256.495	33.7	
260.521	39.01	
264.544	40.01	
268.563	34.04	
272.579	32.71	
276.591	33.37	
280.601	32.38	
284.607	35.69	
288.61	30.72	
292.609	36.36	
296.606	28.4	
300.599	39.67	
304.589	35.03	
308.575	35.36	
312.559	31.71	
316.539	36.03	
320.516	32.38	
324.49	37.02	
328.461	37.68	
332.428	32.38	
336.392	38.68	
340.353	36.03	
344.311	34.37	
348.266	28.4	
352.217	31.38	
356.165	26.74	
360.11	20.77	
364.052	20.11	
367.991	19.44	
371.926	13.81	
375.859	14.47	
379.788	16.13	
383.714	19.77	
387.637	18.45	
391.557	18.45	
395.473	13.81	
399.387	14.8	
403.297	11.15	
407.204	13.47	
411.108	20.44	
415.009	15.13	
418.907	14.47	
422.802	10.16	
426.693	14.14	
430.581	9.49	
434.467	13.81	
438.349	15.8	
442.228	13.81	
446.104	16.79	
449.977	17.45	
453.847	10.49	
457.713	14.14	
461.577	17.45	
465.438	21.76	
469.295	31.38	
473.149	33.37	
477.001	28.07	
480.849	25.74	
484.694	24.75	
488.536	18.45	
492.375	15.8	
496.211	21.1	
500.044	20.44	
503.874	20.77	
507.701	25.41	
511.525	25.41	
515.346	29.72	
519.163	25.08	
522.978	26.41	
526.79	22.76	
530.598	26.08	
534.404	17.12	
538.207	22.1	
542.006	21.1	
545.803	17.45	
549.596	14.47	
553.387	13.81	
557.175	12.81	
560.959	13.81	
564.741	9.49	
568.519	9.16	
572.295	11.15	
576.068	12.81	
579.837	15.46	
583.604	12.48	
587.368	9.16	
591.128	3.19	
594.886	5.18	
598.641	8.83	
602.393	10.82	
606.142	4.19	
609.887	5.85	
613.63	3.19	
617.37	5.85	
621.108	7.17	
624.842	5.85	
628.573	6.51	
632.301	8.83	
636.027	6.51	
639.749	6.84	
643.468	3.52	
647.185	1.87	
650.899	4.19	
654.609	7.17	
658.317	5.51	
662.022	4.52	
665.724	3.19	
669.423	5.18	
673.119	3.19	
676.813	6.51	
680.503	3.19	
684.191	0.87	
687.875	-0.12	
691.557	5.18	
695.236	0.54	
698.912	3.86	
702.585	7.84	
706.256	3.86	
709.923	5.85	
713.588	4.19	
717.249	4.85	
720.908	6.18	
724.564	3.19	
728.217	4.52	
731.868	4.85	
735.515	4.19	
739.16	10.16	
742.801	5.85	
746.44	5.51	
750.076	7.5	
753.71	7.84	
757.34	7.17	
760.968	9.83	
764.593	6.18	
768.215	8.83	
771.834	13.14	
775.45	17.79	
779.064	22.43	
782.675	24.42	
786.283	28.4	
789.888	34.04	
793.49	39.67	
797.09	45.98	
800.686	51.28	
804.281	49.29	
807.872	53.27	
811.46	60.24	
815.046	59.91	
818.629	67.53	
822.209	62.56	
825.786	61.23	
829.361	62.89	
832.933	67.53	
836.502	71.51	
840.068	75.49	
843.632	91.41	
847.193	103.02	
850.751	123.59	
854.306	151.11	
857.859	163.72	
861.409	151.78	
864.956	136.52	
868.5	117.95	
872.042	100.7	
875.581	103.35	
879.117	89.09	
882.651	84.12	
886.182	69.86	
889.71	54.93	
893.235	39.01	
896.758	30.06	
900.278	27.4	
903.795	21.76	
907.31	24.75	
910.822	24.09	
914.331	23.09	
917.838	18.12	
921.341	23.09	
924.843	16.46	
928.341	17.45	
931.837	17.79	
935.33	16.46	
938.821	13.14	
942.308	15.8	
945.793	11.15	
949.276	13.14	
952.756	7.84	
956.233	14.47	
959.707	11.48	
963.179	10.82	
966.649	13.14	
970.115	9.83	
973.579	13.81	
977.04	14.47	
980.499	16.79	
983.955	18.78	
987.408	20.44	
990.859	22.76	
994.307	23.09	
997.753	25.41	
1001.196	28.07	
1004.636	30.39	
1008.074	34.04	
1011.509	43.32	
1014.941	44.65	
1018.371	59.24	
1021.798	67.2	
1025.223	68.2	
1028.645	72.84	
1032.064	74.83	
1035.481	75.16	
1038.896	78.81	
1042.307	81.8	
1045.716	85.78	
1049.123	83.45	
1052.527	86.44	
1055.928	87.77	
1059.327	101.03	
1062.723	89.42	
1066.117	85.44	
1069.508	79.47	
1072.897	78.15	
1076.283	85.44	
1079.666	85.78	
1083.047	94.4	
1086.425	90.42	
1089.801	86.44	
1093.174	80.8	
1096.545	68.53	
1099.913	55.26	
1103.279	52.28	
1106.642	45.31	
1110.002	49.96	
1113.36	47.3	
1116.716	47.97	
1120.069	43.65	
1123.419	46.97	
1126.767	42.33	
1130.113	48.3	
1133.456	38.35	
1136.796	40.67	
1140.134	33.7	
1143.47	31.71	
1146.802	27.73	
1150.133	19.44	
1153.461	15.13	
1156.786	15.46	
1160.109	15.8	
1163.43	15.13	
1166.748	16.46	
1170.063	16.13	
1173.376	15.13	
1176.687	17.12	
1179.995	16.46	
1183.3	20.11	
1186.603	19.11	
1189.904	24.42	
1193.202	23.42	
1196.498	26.08	
1199.791	28.73	
1203.082	29.06	
1206.37	30.72	
1209.656	26.74	
1212.94	30.72	
1216.221	28.4	
1219.499	34.37	
1222.775	36.36	
1226.049	38.02	
1229.32	47.63	
1232.589	50.95	
1235.856	49.96	
1239.12	55.93	
1242.381	53.94	
1245.64	55.26	
1248.897	57.58	
1252.151	54.27	
1255.403	62.56	
1258.652	59.57	
1261.9	70.52	
1265.144	73.5	
1268.386	77.82	
1271.626	84.12	
1274.864	82.79	
1278.099	81.46	
1281.331	82.13	
1284.562	78.15	
1287.789	70.19	
1291.015	67.87	
1294.238	64.22	
1297.459	54.6	
1300.677	53.27	
1303.893	46.64	
1307.106	42.66	
1310.318	38.02	
1313.526	34.7	
1316.733	34.7	
1319.937	31.38	
1323.139	29.06	
1326.338	27.4	
1329.535	30.72	
1332.73	28.73	
1335.922	23.42	
1339.112	26.08	
1342.3	23.76	
1345.485	26.74	
1348.668	23.09	
1351.848	23.76	
1355.027	24.75	
1358.203	21.43	
1361.376	32.38	
1364.547	21.1	
1367.716	25.08	
1370.883	25.41	
1374.047	31.72	
1377.209	28.73	
1380.369	31.72	
1383.526	26.08	
1386.681	34.04	
1389.834	28.73	
1392.984	25.75	
1396.132	31.38	
1399.278	37.68	
1402.421	35.69	
1405.562	31.05	
1408.701	30.39	
1411.838	30.39	
1414.972	35.69	
1418.104	32.71	
1421.234	35.69	
1424.361	40.34	
1427.486	45.64	
1430.609	46.31	
1433.73	53.6	
1436.848	58.58	
1439.964	65.21	
1443.078	80.47	
1446.189	93.4	
1449.299	99.37	
1452.405	108.33	
1455.51	115.96	
1458.613	116.29	
1461.713	110.65	
1464.811	105.01	
1467.906	93.74	
1471	82.79	
1474.091	71.18	
1477.18	58.25	
1480.267	44.65	
1483.351	36.03	
1486.433	28.73	
1489.513	20.44	
1492.591	22.43	
1495.666	21.1	
1498.74	15.13	
1501.811	13.81	
1504.879	6.18	
1507.946	9.16	
1511.01	8.5	
1514.073	8.17	
1517.132	5.85	
1520.19	2.2	
1523.246	9.49	
1526.299	3.52	
1529.35	3.19	
1532.399	2.2	
1535.446	0.21	
1538.49	0.21	
1541.532	3.19	
1544.572	3.19	
1547.61	-1.12	
1550.646	-1.12	
1553.68	2.2	
1556.711	0.54	
1559.74	1.87	
1562.767	1.53	
1565.792	3.52	
1568.814	-1.12	
1571.835	4.19	
1574.853	1.2	
1577.869	0.87	
1580.883	0.54	
1583.895	2.53	
1586.904	1.87	
1589.912	-0.12	
1592.917	-3.77	
1595.92	-0.46	
1598.921	1.53	
1601.92	-2.45	
1604.917	-0.79	
1607.911	2.2	
1610.903	0.87	
1613.894	0.21	
1616.882	-3.44	
1619.868	0.21	
1622.851	1.87	
1625.833	-0.46	
1628.812	-4.1	
1631.79	-0.79	
1634.765	-2.11	
1637.738	0.87	
1640.709	0.21	
1643.678	-1.45	
1646.645	-1.45	
1649.609	0.21	
1652.572	-4.77	
1655.532	-2.11	
1658.49	-4.77	
1661.447	-3.11	
1664.401	-1.45	
1667.353	-2.11	
1670.302	-3.77	
1673.25	-1.45	
1676.196	-3.77	
1679.139	-3.77	
1682.081	-1.45	
1685.02	-4.44	
1687.957	3.52	
1690.893	-3.11	
1693.826	-3.44	
1696.757	0.21	
1699.686	-1.78	
1702.612	-1.45	
1705.537	2.53	
1708.46	-5.43	
1711.38	-4.1	
1714.299	-1.78	
1717.215	-2.78	
1720.13	-1.12	
1723.042	-3.77	
1725.952	-1.45	
1728.86	-2.78	
1731.767	-5.1	
1734.671	-2.78	
1737.573	-2.45	
1740.473	-0.79	
1743.37	-3.11	
1746.266	-5.43	
1749.16	-1.78	
1752.052	0.87	
1754.942	-0.12	
1757.829	-1.45	
1760.715	-0.12	
1763.598	-1.12	
1766.48	-1.45	
1769.36	-4.44	
1772.237	0.87	
1775.112	0.87	
1777.986	0.21	
1780.857	-0.79	
1783.727	-1.78	
1786.594	-1.78	
1789.459	-5.43	
1792.323	-0.79	
1795.184	-4.44	
1798.043	-2.78	
1800.9	-3.77	
1803.756	-4.77	
1806.609	1.2	
1809.46	1.87	
1812.309	-2.45	
1815.157	-5.1	
1818.002	-2.11	
1820.845	-1.78	
1823.686	-6.43	
1826.526	-6.43	
1829.363	-3.44	
1832.198	-5.43	
1835.031	-1.45	
1837.863	-1.78	
1840.692	2.86	
1843.519	-6.09	
1846.345	-5.1	
1849.168	-1.12	
1851.989	-4.1	
1854.809	-0.46	
1857.626	-0.46	
1860.441	-7.42	
1863.255	-4.44	
1866.066	-4.44	
1868.876	-4.77	
1871.684	-5.76	
1874.489	-1.78	
1877.293	-4.77	
1880.095	-1.45	
1882.894	-5.1	
1885.692	-7.09	
1888.488	-4.1	
1891.282	-7.09	
1894.074	-3.11	
1896.864	-2.78	
1899.652	-6.09	
1902.438	-5.43	
1905.222	-1.12	
1908.004	-2.45	
1910.785	-4.1	
1913.563	-3.11	
1916.339	-4.44	
1919.114	-2.11	
1921.886	-6.43	
1924.657	1.87	
1927.426	-2.78	
1930.193	0.21	
1932.957	0.87	
1935.72	-4.44	
1938.481	-5.1	
1941.24	-2.11	
1943.998	0.87	
1946.753	-7.09	
1949.506	-3.44	
1952.258	-2.78	
1955.007	-4.44	
1957.755	4.52	
1960.501	1.2	
1963.245	-4.77	
1965.986	-2.11	
1968.726	-0.12	
1971.465	-2.11	
1974.201	-0.12	
1976.935	-2.11	
1979.668	-0.12	
1982.398	-2.11	
1985.127	-3.77	
1987.854	-3.11	
1990.579	-2.45	
1993.302	-1.78	
1996.023	0.21	
1998.742	-0.12	
2001.46	1.53	
2004.175	-5.43	
2006.889	-3.11	
2009.6	0.54	
2012.31	-0.46	
2015.018	-0.46	
2017.725	-0.46	
2020.429	0.54	
2023.131	0.87	
2025.832	-1.45	
2028.531	0.54	
2031.228	-0.12	
2033.923	-2.45	
2036.616	-0.12	
2039.307	-3.11	
2041.997	-2.11	
2044.684	-2.78	
2047.37	-5.1	
2050.054	-1.78	
2052.736	-0.12	
2055.416	-1.78	
2058.095	0.54	
2060.771	-1.12	
2063.446	-0.12	
2066.119	-0.12	
2068.79	0.21	
2071.459	1.87	
2074.127	-1.45	
2076.792	-0.12	
2079.456	-1.78	
2082.118	2.2	
2084.778	0.54	
2087.436	-3.44	
2090.093	-0.12	
2092.747	-1.45	
2095.4	0.21	
2098.051	0.54	
2100.7	-0.46	
2103.348	-1.12	
2105.993	-3.11	
2108.637	-0.46	
2111.279	0.21	
2113.919	-0.79	
2116.558	-3.77	
2119.194	-1.12	
2121.829	-0.46	
2124.462	1.87	
2127.093	-3.11	
2129.723	2.2	
2132.35	-4.1	
2134.976	-0.46	
2137.6	1.2	
2140.223	3.19	
2142.843	0.54	
2145.462	0.21	
2148.079	-0.46	
2150.694	1.2	
2153.307	0.21	
2155.919	-2.45	
2158.528	2.53	
2161.137	1.2	
2163.743	1.2	
2166.347	-2.11	
2168.95	1.53	
2171.551	2.86	
2174.15	2.53	
2176.748	1.53	
2179.343	-0.12	
2181.937	-1.12	
2184.529	-0.46	
2187.12	0.54	
2189.708	1.53	
2192.295	0.87	
2194.88	-1.12	
2197.464	-1.45	
2200.045	-1.78	
2202.625	-3.44	
2205.203	-1.45	
2207.78	-0.79	
2210.355	-1.12	
2212.928	-0.79	
2215.499	-1.45	
2218.068	0.54	
2220.636	-4.1	
2223.202	-0.46	
2225.766	-0.46	
2228.329	-3.11	
2230.889	-1.78	
2233.449	1.53	
2236.006	-0.79	
2238.562	-0.79	
2241.115	-1.12	
2243.668	2.2	
2246.218	-0.79	
2248.767	3.19	
2251.314	0.87	
2253.859	-1.78	
2256.403	3.19	
2258.945	0.21	
2261.485	0.87	
2264.023	2.86	
2266.56	-0.46	
2269.095	1.53	
2271.629	-1.12	
2274.16	1.53	
2276.69	1.2	
2279.219	1.87	
2281.745	1.53	
2284.27	2.53	
2286.793	-0.12	
2289.315	0.21	
2291.835	0.87	
2294.353	2.53	
2296.869	0.54	
2299.384	1.87	
2301.897	0.54	
2304.408	-4.1	
2306.918	-0.79	
2309.426	-0.12	
2311.932	-2.45	
2314.437	0.54	
2316.94	1.2	
2319.441	4.19	
2321.941	4.19	
2324.439	-1.12	
2326.935	2.2	
2329.43	3.52	
2331.923	-0.46	
2334.414	0.54	
2336.904	-0.46	
2339.392	2.2	
2341.878	0.87	
2344.363	0.21	
2346.846	-3.44	
2349.328	1.87	
2351.807	2.53	
2354.285	-1.12	
2356.762	1.2	
2359.237	-0.79	
2361.71	-0.46	
2364.181	2.2	
2366.651	-0.46	
2369.119	0.54	
2371.586	0.54	
2374.051	-0.46	
2376.514	0.21	
2378.976	0.21	
2381.436	-0.46	
2383.894	2.86	
2386.351	-0.46	
2388.806	2.86	
2391.259	2.53	
2393.711	0.54	
2396.161	2.86	
2398.61	-0.12	
2401.057	0.21	
2403.502	0.21	
2405.946	-2.45	
2408.388	-2.45	
2410.829	0.21	
2413.268	0.87	
2415.705	-0.79	
2418.141	-0.79	
2420.575	-3.44	
2423.007	-0.46	
2425.438	-5.1	
2427.867	-1.12	
2430.295	1.2	
2432.721	-0.79	
2435.145	-0.12	
2437.568	-1.78	
2439.989	-1.12	
2442.409	2.53	
2444.827	-1.12	
2447.243	-2.78	
2449.658	-0.12	
2452.071	0.54	
2454.483	1.87	
2456.893	1.53	
2459.302	0.54	
2461.709	0.21	
2464.114	-0.79	
2466.518	-0.46	
2468.92	1.53	
2471.32	-0.79	
2473.719	-2.45	
2476.117	2.53	
2478.512	1.53	
2480.907	-1.12	
2483.299	3.52	
2485.691	-1.78	
2488.08	-0.12	
2490.468	0.54	
2492.854	2.86	
2495.239	0.87	
2497.623	-0.12	
2500.004	4.19	
2502.384	1.2	
2504.763	3.52	
2507.14	1.87	
2509.515	-0.46	
2511.889	1.53	
2514.262	-0.46	
2516.633	0.21	
2519.002	0.54	
2521.369	4.52	
2523.736	1.53	
2526.1	6.51	
2528.463	-2.78	
2530.825	-1.12	
2533.185	0.87	
2535.543	3.19	
2537.9	-0.12	
2540.255	-4.1	
2542.609	2.53	
2544.961	0.87	
2547.312	-1.45	
2549.661	-4.44	
2552.009	-0.12	
2554.355	2.2	
2556.7	-0.46	
2559.043	1.53	
2561.384	2.2	
2563.724	0.87	
2566.063	0.87	
2568.4	0.21	
2570.735	0.54	
2573.069	2.2	
2575.402	1.87	
2577.733	4.19	
2580.062	2.53	
2582.39	0.21	
2584.716	0.21	
2587.041	3.19	
2589.364	4.52	
2591.686	3.52	
2594.006	-0.12	
2596.325	2.53	
2598.643	-2.11	
2600.958	-3.77	
2603.273	3.86	
2605.585	-1.78	
2607.897	4.85	
2610.206	1.87	
2612.515	0.21	
2614.822	-0.79	
2617.127	1.87	
2619.431	-0.79	
2621.733	1.87	
2624.034	3.19	
2626.333	0.87	
2628.631	-0.12	
2630.927	4.19	
2633.222	1.87	
2635.515	-3.11	
2637.807	2.2	
2640.098	1.2	
2642.387	2.2	
2644.674	0.54	
2646.96	2.53	
2649.245	3.86	
2651.528	4.52	
2653.809	-0.12	
2656.089	1.2	
2658.368	-0.12	
2660.645	0.87	
2662.921	4.52	
2665.195	3.19	
2667.468	4.19	
2669.739	3.19	
2672.009	4.52	
2674.277	2.86	
2676.544	6.18	
2678.809	2.86	
2681.073	4.19	
2683.336	6.84	
2685.597	2.86	
2687.856	6.84	
2690.115	4.52	
2692.371	8.5	
2694.626	7.5	
2696.88	5.51	
2699.133	7.84	
2701.383	6.51	
2703.633	7.84	
2705.881	5.18	
2708.127	7.5	
2710.373	7.5	
2712.616	11.82	
2714.859	9.16	
2717.099	14.47	
2719.339	14.47	
2721.577	7.84	
2723.813	15.13	
2726.048	8.83	
2728.282	14.14	
2730.514	11.15	
2732.745	10.82	
2734.974	8.17	
2737.202	10.82	
2739.428	8.83	
2741.653	10.82	
2743.877	10.82	
2746.099	12.48	
2748.32	13.47	
2750.539	10.49	
2752.757	13.14	
2754.974	15.8	
2757.189	11.48	
2759.403	13.81	
2761.615	13.47	
2763.826	16.46	
2766.035	13.81	
2768.243	15.46	
2770.45	15.46	
2772.655	11.15	
2774.859	16.79	
2777.062	13.81	
2779.263	18.45	
2781.462	15.79	
2783.66	14.14	
2785.857	19.77	
2788.053	17.12	
2790.247	14.8	
2792.439	23.09	
2794.631	17.78	
2796.82	23.42	
2799.009	22.1	
2801.196	24.09	
2803.382	23.09	
2805.566	25.08	
2807.749	24.75	
2809.93	28.4	
2812.11	28.4	
2814.289	27.07	
2816.466	33.04	
2818.642	28.07	
2820.817	31.71	
2822.99	33.37	
2825.162	36.69	
2827.332	37.02	
2829.502	41	
2831.669	36.03	
2833.836	33.7	
2836	43.65	
2838.164	39.01	
2840.326	47.63	
2842.487	45.98	
2844.647	50.62	
2846.805	51.61	
2848.961	52.61	
2851.117	53.27	
2853.271	55.26	
2855.423	61.23	
2857.575	65.88	
2859.725	64.88	
2861.873	64.55	
2864.02	69.19	
2866.166	74.83	
2868.311	76.49	
2870.454	79.47	
2872.596	79.81	
2874.736	83.12	
2876.875	77.48	
2879.013	75.83	
2881.149	79.14	
2883.284	78.48	
2885.418	79.14	
2887.551	76.82	
2889.682	73.84	
2891.811	74.83	
2893.94	69.52	
2896.067	75.49	
2898.192	67.87	
2900.317	70.52	
2902.439	64.88	
2904.561	67.87	
2906.681	69.86	
2908.8	70.52	
2910.918	66.87	
2913.034	64.55	
2915.149	65.54	
2917.263	64.88	
2919.375	69.19	
2921.486	62.89	
2923.596	65.21	
2925.704	60.9	
2927.811	63.89	
2929.917	61.9	
2932.021	63.22	
2934.124	65.54	
2936.226	63.22	
2938.327	63.22	
2940.426	60.57	
2942.524	60.24	
2944.62	54.93	
2946.715	55.93	
2948.809	52.94	
2950.902	53.94	
2952.993	52.94	
2955.083	52.94	
2957.171	46.97	
2959.259	43.32	
2961.345	41	
2963.429	37.02	
2965.513	36.03	
2967.595	33.7	
2969.676	30.39	
2971.755	30.72	
2973.833	25.74	
2975.91	24.09	
2977.986	24.42	
2980.06	22.1	
2982.133	18.12	
2984.205	15.46	
2986.275	17.78	
2988.345	14.14	
2990.412	11.48	
2992.479	13.47	
2994.544	9.83	
2996.608	11.82	
2998.671	8.17	
3000.732	8.5	
3002.792	4.19	
3004.851	3.52	
3006.909	4.85	
3008.965	7.5	
3011.02	4.19	
3013.074	4.19	
3015.126	4.19	
3017.177	4.85	
3019.227	6.84	
3021.276	1.2	
3023.323	3.52	
3025.369	4.85	
3027.414	5.18	
3029.458	4.19	
3031.5	3.19	
3033.541	-1.12	
3035.581	2.86	
3037.619	4.19	
3039.656	4.52	
3041.692	6.51	
3043.727	1.87	
3045.76	-0.79	
3047.793	3.52	
3049.824	1.53	
3051.853	0.54	
3053.882	-3.77	
3055.909	0.21	
