RamanShift:204		
0.351	-17.92	
4.587	-8.29	
8.82	-3.65	
13.049	-4.31	
17.275	-1.99	
21.497	-1.99	
25.716	-4.31	
29.931	0.66	
34.142	-1.99	
38.351	-1.66	
42.555	0.33	
46.756	-2.98	
50.954	-2.65	
55.148	-2.32	
59.339	2.65	
63.527	-1.33	
67.71	-1.33	
71.891	2.32	
76.068	-1.66	
80.241	-0	
84.411	1.99	
88.578	0.66	
92.741	-0.66	
96.901	4.64	
101.057	-0.99	
105.21	2.98	
109.359	3.32	
113.505	6.96	
117.648	5.97	
121.787	6.3	
125.923	7.63	
130.055	6.63	
134.184	9.29	
138.31	14.59	
142.432	15.59	
146.551	17.58	
150.667	17.58	
154.779	20.56	
158.887	25.54	
162.993	28.52	
167.095	26.86	
171.193	30.18	
175.289	34.49	
179.381	37.48	
183.469	35.16	
187.554	37.81	
191.636	40.79	
195.715	44.11	
199.79	49.09	
203.862	42.78	
207.931	46.76	
211.996	50.08	
216.058	50.41	
220.116	53.07	
224.172	49.09	
228.224	50.41	
232.272	55.06	
236.318	53.07	
240.36	63.02	
244.399	59.04	
248.434	58.37	
252.466	57.38	
256.495	67	
260.521	66	
264.544	62.68	
268.563	69.98	
272.579	64.67	
276.591	70.98	
280.601	80.92	
284.607	85.9	
288.61	109.78	
292.609	128.02	
296.606	152.57	
300.599	157.21	
304.589	154.56	
308.575	141.62	
312.559	125.04	
316.539	121.72	
320.516	136.98	
324.49	156.21	
328.461	169.15	
332.428	171.47	
336.392	167.49	
340.353	160.19	
344.311	134.66	
348.266	125.37	
352.217	111.11	
356.165	95.52	
360.11	86.56	
364.052	83.91	
367.991	83.91	
371.926	78.27	
375.859	90.54	
379.788	94.19	
383.714	87.56	
387.637	77.28	
391.557	64.34	
395.473	53.4	
399.387	52.4	
403.297	50.08	
407.204	39.14	
411.108	38.47	
415.009	35.82	
418.907	34.49	
422.802	33.5	
426.693	38.47	
430.581	35.49	
434.467	32.17	
438.349	38.8	
442.228	35.16	
446.104	33.17	
449.977	29.85	
453.847	36.48	
457.713	32.83	
461.577	30.18	
465.438	30.18	
469.295	30.18	
473.149	21.89	
477.001	26.86	
480.849	24.21	
484.694	26.86	
488.536	25.54	
492.375	25.54	
496.211	25.54	
500.044	27.2	
503.874	34.49	
507.701	32.83	
511.525	33.17	
515.346	39.47	
519.163	33.83	
522.978	38.47	
526.79	37.48	
530.598	40.46	
534.404	35.49	
538.207	33.17	
542.006	30.51	
545.803	27.53	
549.596	31.18	
553.387	29.85	
557.175	28.85	
560.959	27.2	
564.741	23.88	
568.519	28.19	
572.295	22.55	
576.068	22.55	
579.837	22.55	
583.604	20.56	
587.368	20.23	
591.128	24.21	
594.886	26.2	
598.641	19.9	
602.393	21.56	
606.142	24.21	
609.887	23.22	
613.63	30.84	
617.37	29.85	
621.108	28.19	
624.842	38.47	
628.573	37.48	
632.301	40.79	
636.027	53.07	
639.749	50.41	
643.468	63.02	
647.185	75.29	
650.899	105.14	
654.609	159.53	
658.317	261.36	
662.022	401.66	
665.724	520.75	
669.423	507.48	
673.119	385.08	
676.813	239.13	
680.503	144.61	
684.191	107.46	
687.875	109.78	
691.557	127.36	
695.236	149.58	
698.912	170.81	
702.585	173.46	
706.256	146.26	
709.923	111.77	
713.588	83.91	
717.249	61.69	
720.908	61.36	
724.564	55.72	
728.217	50.08	
731.868	46.76	
735.515	40.79	
739.16	30.51	
742.801	29.85	
746.44	31.51	
750.076	32.17	
753.71	31.84	
757.34	40.13	
760.968	30.51	
764.593	36.48	
768.215	35.49	
771.834	31.84	
775.45	33.17	
779.064	32.17	
782.675	38.14	
786.283	28.52	
789.888	39.14	
793.49	38.8	
797.09	42.12	
800.686	45.11	
804.281	46.76	
807.872	48.09	
811.46	41.46	
815.046	44.77	
818.629	48.09	
822.209	44.77	
825.786	50.74	
829.361	49.09	
832.933	49.75	
836.502	48.42	
840.068	54.06	
843.632	54.72	
847.193	53.4	
850.751	61.69	
854.306	64.67	
857.859	74.29	
861.409	75.62	
864.956	80.26	
868.5	78.6	
872.042	83.58	
875.581	83.58	
879.117	89.22	
882.651	73.63	
886.182	66	
889.71	57.38	
893.235	56.71	
896.758	50.41	
900.278	51.08	
903.795	48.42	
907.31	43.45	
910.822	44.77	
914.331	39.47	
917.838	39.8	
921.341	32.5	
924.843	35.82	
928.341	35.16	
931.837	41.13	
935.33	41.46	
938.821	46.76	
942.308	55.06	
945.793	53.4	
949.276	59.7	
952.756	51.08	
956.233	39.14	
959.707	33.83	
963.179	27.53	
966.649	31.18	
970.115	30.84	
973.579	33.5	
977.04	33.83	
980.499	34.82	
983.955	36.48	
987.408	41.13	
990.859	49.09	
994.307	53.4	
997.753	65.67	
1001.196	71.97	
1004.636	91.87	
1008.074	103.15	
1011.509	111.77	
1014.941	128.69	
1018.371	139.3	
1021.798	148.92	
1025.223	150.24	
1028.645	139.3	
1032.064	128.69	
1035.481	127.36	
1038.896	127.36	
1042.307	124.37	
1045.716	114.75	
1049.123	111.11	
1052.527	122.72	
1055.928	112.43	
1059.327	110.44	
1062.723	106.13	
1066.117	106.46	
1069.508	95.85	
1072.897	96.85	
1076.283	83.25	
1079.666	76.28	
1083.047	71.64	
1086.425	57.38	
1089.801	52.73	
1093.174	52.07	
1096.545	42.45	
1099.913	44.44	
1103.279	37.81	
1106.642	40.79	
1110.002	44.11	
1113.36	43.78	
1116.716	45.11	
1120.069	45.77	
1123.419	46.1	
1126.767	51.74	
1130.113	42.78	
1133.456	46.1	
1136.796	42.78	
1140.134	39.47	
1143.47	40.46	
1146.802	40.13	
1150.133	34.82	
1153.461	36.15	
1156.786	31.84	
1160.109	35.82	
1163.43	26.2	
1166.748	27.2	
1170.063	24.87	
1173.376	23.88	
1176.687	16.91	
1179.995	19.9	
1183.3	21.89	
1186.603	19.24	
1189.904	22.88	
1193.202	25.21	
1196.498	26.2	
1199.791	27.53	
1203.082	28.19	
1206.37	26.2	
1209.656	28.52	
1212.94	38.14	
1216.221	30.51	
1219.499	32.83	
1222.775	43.12	
1226.049	47.76	
1229.32	45.44	
1232.589	49.42	
1235.856	44.77	
1239.12	53.73	
1242.381	53.73	
1245.64	53.07	
1248.897	51.08	
1252.151	53.73	
1255.403	53.73	
1258.652	55.72	
1261.9	64.34	
1265.144	60.03	
1268.386	72.3	
1271.626	74.62	
1274.864	75.29	
1278.099	79.27	
1281.331	78.94	
1284.562	82.92	
1287.789	79.93	
1291.015	71.97	
1294.238	77.28	
1297.459	70.98	
1300.677	67	
1303.893	58.7	
1307.106	59.04	
1310.318	58.37	
1313.526	57.05	
1316.733	52.4	
1319.937	50.74	
1323.139	46.43	
1326.338	52.07	
1329.535	47.43	
1332.73	50.74	
1335.922	49.42	
1339.112	47.1	
1342.3	44.11	
1345.485	44.77	
1348.668	41.46	
1351.848	53.4	
1355.027	46.1	
1358.203	48.42	
1361.376	51.74	
1364.547	52.07	
1367.716	59.37	
1370.883	55.72	
1374.047	58.04	
1377.209	54.39	
1380.369	62.35	
1383.526	46.76	
1386.681	58.37	
1389.834	58.04	
1392.984	59.7	
1396.132	60.69	
1399.278	79.93	
1402.421	77.61	
1405.562	95.52	
1408.701	110.11	
1411.838	111.77	
1414.972	114.43	
1418.104	105.14	
1421.234	101.82	
1424.361	89.88	
1427.486	82.25	
1430.609	90.88	
1433.73	94.52	
1436.848	103.48	
1439.964	110.45	
1443.078	108.12	
1446.189	122.39	
1449.299	119.73	
1452.405	123.71	
1455.51	124.38	
1458.613	121.06	
1461.713	125.04	
1464.811	119.07	
1467.906	111.77	
1471	103.15	
1474.091	91.21	
1477.18	75.62	
1480.267	62.68	
1483.351	57.05	
1486.433	45.77	
1489.513	34.49	
1492.591	28.52	
1495.666	26.86	
1498.74	22.22	
1501.811	22.55	
1504.879	17.58	
1507.946	17.25	
1511.01	17.58	
1514.073	16.25	
1517.132	17.91	
1520.19	16.25	
1523.246	9.62	
1526.299	14.92	
1529.35	18.24	
1532.399	13.6	
1535.446	13.6	
1538.49	11.94	
1541.532	13.6	
1544.572	15.26	
1547.61	10.28	
1550.646	11.28	
1553.68	11.61	
1556.711	8.29	
1559.74	0.99	
1562.767	13.27	
1565.792	11.61	
1568.814	9.95	
1571.835	8.29	
1574.853	9.62	
1577.869	13.93	
1580.883	9.29	
1583.895	8.29	
1586.904	8.29	
1589.912	10.28	
1592.917	6.63	
1595.92	9.29	
1598.921	11.94	
1601.92	6.3	
1604.917	5.97	
1607.911	9.29	
1610.903	7.3	
1613.894	14.26	
1616.882	6.63	
1619.868	10.61	
1622.851	7.96	
1625.833	11.61	
1628.812	4.97	
1631.79	10.28	
1634.765	3.65	
1637.738	7.96	
1640.709	9.62	
1643.678	9.62	
1646.645	8.95	
1649.609	12.27	
1652.572	14.26	
1655.532	9.95	
1658.49	5.31	
1661.447	4.97	
1664.401	6.63	
1667.353	5.64	
1670.302	7.96	
1673.25	8.95	
1676.196	4.97	
1679.139	10.28	
1682.081	0.66	
1685.02	6.3	
1687.957	6.63	
1690.893	2.98	
1693.826	6.63	
1696.757	6.3	
1699.686	4.97	
1702.612	2.98	
1705.537	5.97	
1708.46	1.99	
1711.38	4.97	
1714.299	-0	
1717.215	7.3	
1720.13	8.29	
1723.042	6.96	
1725.952	8.95	
1728.86	2.98	
1731.767	3.32	
1734.671	2.32	
1737.573	2.32	
1740.473	4.31	
1743.37	4.64	
1746.266	5.64	
1749.16	7.63	
1752.052	7.3	
1754.942	3.98	
1757.829	2.65	
1760.715	4.31	
1763.598	5.64	
1766.48	7.63	
1769.36	3.98	
1772.237	5.64	
1775.112	2.98	
1777.986	1.66	
1780.857	2.98	
1783.727	3.98	
1786.594	5.97	
1789.459	6.63	
1792.323	6.96	
1795.184	5.31	
1798.043	5.31	
1800.9	4.97	
1803.756	3.32	
1806.609	3.98	
1809.46	3.65	
1812.309	4.64	
1815.157	4.31	
1818.002	5.64	
1820.845	0.66	
1823.686	-0.66	
1826.526	0.66	
1829.363	3.32	
1832.198	5.97	
1835.031	7.3	
1837.863	1.33	
1840.692	3.98	
1843.519	4.64	
1846.345	3.98	
1849.168	4.64	
1851.989	3.32	
1854.809	1.99	
1857.626	3.32	
1860.441	5.64	
1863.255	5.64	
1866.066	-0	
1868.876	4.31	
1871.684	5.64	
1874.489	0.33	
1877.293	5.64	
1880.095	3.32	
1882.894	1.33	
1885.692	-0	
1888.488	-0.66	
1891.282	-0.99	
1894.074	2.98	
1896.864	2.65	
1899.652	4.64	
1902.438	7.96	
1905.222	3.32	
1908.004	2.65	
1910.785	3.65	
1913.563	3.32	
1916.339	-2.32	
1919.114	2.65	
1921.886	3.65	
1924.657	3.98	
1927.426	3.32	
1930.193	0.66	
1932.957	-1.99	
1935.72	4.31	
1938.481	1.66	
1941.24	1.33	
1943.998	0.66	
1946.753	-0.99	
1949.506	1.99	
1952.258	4.31	
1955.007	-1.33	
1957.755	1.66	
1960.501	1.33	
1963.245	3.98	
1965.986	7.63	
1968.726	1.99	
1971.465	-0.99	
1974.201	4.97	
1976.935	2.65	
1979.668	0.99	
1982.398	2.32	
1985.127	-0	
1987.854	4.64	
1990.579	2.65	
1993.302	1.99	
1996.023	1.99	
1998.742	7.3	
2001.46	0.66	
2004.175	0.99	
2006.889	2.98	
2009.6	-2.32	
2012.31	-0	
2015.018	-0.66	
2017.725	1.33	
2020.429	1.33	
2023.131	3.32	
2025.832	3.32	
2028.531	2.98	
2031.228	1.33	
2033.923	1.33	
2036.616	-0	
2039.307	1.66	
2041.997	-0.33	
2044.684	1.66	
2047.37	1.33	
2050.054	-2.32	
2052.736	-1.33	
2055.416	-2.32	
2058.095	3.65	
2060.771	3.32	
2063.446	0.99	
2066.119	-0	
2068.79	1.99	
2071.459	-3.98	
2074.127	-2.65	
2076.792	0.33	
2079.456	-0.66	
2082.118	1.66	
2084.778	2.98	
2087.436	3.32	
2090.093	-0	
2092.747	-0.33	
2095.4	-0.66	
2098.051	2.32	
2100.7	4.31	
2103.348	-1.33	
2105.993	2.32	
2108.637	2.32	
2111.279	-0	
2113.919	1.66	
2116.558	1.33	
2119.194	-0.33	
2121.829	-0	
2124.462	0.66	
2127.093	-1.66	
2129.723	-1.99	
2132.35	-2.32	
2134.976	-1.99	
2137.6	4.64	
2140.223	3.98	
2142.843	-1.99	
2145.462	-0	
2148.079	0.99	
2150.694	-0	
2153.307	-5.31	
2155.919	-0.66	
2158.528	-1.99	
2161.137	-0.66	
2163.743	-0.33	
2166.347	0.33	
2168.95	-1.33	
2171.551	0.66	
2174.15	-2.65	
2176.748	0.99	
2179.343	0.99	
2181.937	-2.98	
2184.529	-1.99	
2187.12	-4.31	
2189.708	-0	
2192.295	1.33	
2194.88	0.99	
2197.464	-1.33	
2200.045	-0	
2202.625	1.99	
2205.203	-1.99	
2207.78	3.98	
2210.355	2.32	
2212.928	1.99	
2215.499	0.33	
2218.068	0.66	
2220.636	1.66	
2223.202	7.96	
2225.766	2.65	
2228.329	0.99	
2230.889	-1.33	
2233.449	0.99	
2236.006	4.97	
2238.562	-1.66	
2241.115	3.98	
2243.668	1.99	
2246.218	-1.99	
2248.767	3.65	
2251.314	-1.99	
2253.859	0.66	
2256.403	1.33	
2258.945	-1.33	
2261.485	2.65	
2264.023	-1.99	
2266.56	-0	
2269.095	0.66	
2271.629	1.66	
2274.16	3.32	
2276.69	-3.65	
2279.219	-4.31	
2281.745	-0.99	
2284.27	3.65	
2286.793	-0.66	
2289.315	0.99	
2291.835	3.65	
2294.353	-0	
2296.869	-2.65	
2299.384	3.98	
2301.897	1.99	
2304.408	-1.66	
2306.918	-0.66	
2309.426	-5.64	
2311.932	-3.32	
2314.437	2.32	
2316.94	3.65	
2319.441	-0.66	
2321.941	-5.31	
2324.439	3.98	
2326.935	-1.99	
2329.43	-0.66	
2331.923	3.32	
2334.414	-0.99	
2336.904	0.66	
2339.392	2.65	
2341.878	-0	
2344.363	-0	
2346.846	-0.99	
2349.328	-0	
2351.807	-0.33	
2354.285	-0	
2356.762	2.32	
2359.237	-0.66	
2361.71	-0.99	
2364.181	-1.99	
2366.651	0.99	
2369.119	-0.99	
2371.586	0.33	
2374.051	-0.33	
2376.514	-0.33	
2378.976	2.32	
2381.436	0.99	
2383.894	2.32	
2386.351	-0.66	
2388.806	1.33	
2391.259	0.66	
2393.711	-2.98	
2396.161	-1.66	
2398.61	0.99	
2401.057	0.33	
2403.502	-1.99	
2405.946	-0.99	
2408.388	-0	
2410.829	0.66	
2413.268	0.66	
2415.705	-0.33	
2418.141	1.66	
2420.575	-2.65	
2423.007	3.98	
2425.438	1.66	
2427.867	2.98	
2430.295	-4.97	
2432.721	2.32	
2435.145	3.32	
2437.568	-0.99	
2439.989	-0.66	
2442.409	0.33	
2444.827	2.98	
2447.243	3.98	
2449.658	-0	
2452.071	2.98	
2454.483	1.66	
2456.893	4.31	
2459.302	2.98	
2461.709	-2.65	
2464.114	0.66	
2466.518	3.65	
2468.92	-1.33	
2471.32	1.99	
2473.719	0.99	
2476.117	-1.99	
2478.512	2.32	
2480.907	5.31	
2483.299	1.33	
2485.691	0.33	
2488.08	-0.33	
2490.468	-0	
2492.854	0.99	
2495.239	0.99	
2497.623	-1.33	
2500.004	3.98	
2502.384	3.32	
2504.763	0.99	
2507.14	4.31	
2509.515	4.31	
2511.889	-0.66	
2514.262	1.99	
2516.633	-0.66	
2519.002	0.99	
2521.369	1.99	
2523.736	4.64	
2526.1	0.66	
2528.463	0.66	
2530.825	2.65	
2533.185	1.99	
2535.543	0.66	
2537.9	1.33	
2540.255	2.98	
2542.609	3.32	
2544.961	3.32	
2547.312	-0.66	
2549.661	1.33	
2552.009	0.99	
2554.355	3.32	
2556.7	2.65	
2559.043	-1.99	
2561.384	2.65	
2563.724	3.98	
2566.063	6.3	
2568.4	-0.99	
2570.735	-1.99	
2573.069	-1.99	
2575.402	2.32	
2577.733	0.99	
2580.062	-0.99	
2582.39	-0.33	
2584.716	7.96	
2587.041	3.32	
2589.364	3.98	
2591.686	1.99	
2594.006	-1.66	
2596.325	2.65	
2598.643	5.64	
2600.958	3.98	
2603.273	1.99	
2605.585	5.97	
2607.897	4.31	
2610.206	0.66	
2612.515	3.98	
2614.822	3.65	
2617.127	-0.33	
2619.431	-0	
2621.733	6.3	
2624.034	0.99	
2626.333	8.29	
2628.631	3.98	
2630.927	-0.33	
2633.222	3.32	
2635.515	2.65	
2637.807	2.65	
2640.098	-0.33	
2642.387	6.96	
2644.674	2.65	
2646.96	3.32	
2649.245	3.32	
2651.528	2.32	
2653.809	0.99	
2656.089	-1.33	
2658.368	0.99	
2660.645	8.62	
2662.921	7.3	
2665.195	4.31	
2667.468	6.3	
2669.739	5.31	
2672.009	2.98	
2674.277	4.97	
2676.544	-0.99	
2678.809	4.64	
2681.073	5.64	
2683.336	7.3	
2685.597	8.62	
2687.856	9.29	
2690.115	7.63	
2692.371	8.62	
2694.626	9.29	
2696.88	7.3	
2699.133	10.94	
2701.383	8.29	
2703.633	12.6	
2705.881	8.95	
2708.127	13.27	
2710.373	10.61	
2712.616	12.27	
2714.859	13.27	
2717.099	13.27	
2719.339	12.93	
2721.577	13.6	
2723.813	13.27	
2726.048	12.6	
2728.282	14.59	
2730.514	10.94	
2732.745	10.61	
2734.974	12.93	
2737.202	14.92	
2739.428	14.59	
2741.653	10.28	
2743.877	14.92	
2746.099	13.27	
2748.32	19.24	
2750.539	13.27	
2752.757	14.92	
2754.974	20.23	
2757.189	20.23	
2759.403	16.58	
2761.615	20.56	
2763.826	17.25	
2766.035	19.24	
2768.243	17.58	
2770.45	19.9	
2772.655	17.91	
2774.859	19.24	
2777.062	18.9	
2779.263	21.23	
2781.462	25.54	
2783.66	21.89	
2785.857	22.22	
2788.053	23.88	
2790.247	25.21	
2792.439	30.51	
2794.631	24.21	
2796.82	31.84	
2799.009	33.83	
2801.196	30.51	
2803.382	33.17	
2805.566	33.5	
2807.749	37.81	
2809.93	37.48	
2812.11	40.46	
2814.289	40.79	
2816.466	41.13	
2818.642	44.44	
2820.817	42.45	
2822.99	47.43	
2825.162	45.77	
2827.332	52.07	
2829.502	42.78	
2831.669	45.44	
2833.836	50.74	
2836	51.74	
2838.164	47.1	
2840.326	51.41	
2842.487	55.39	
2844.647	53.4	
2846.805	53.06	
2848.961	55.39	
2851.117	53.73	
2853.271	58.37	
2855.423	62.35	
2857.575	58.7	
2859.725	62.68	
2861.873	69.98	
2864.02	66.99	
2866.166	68.32	
2868.311	73.96	
2870.454	68.65	
2872.596	67.99	
2874.736	73.96	
2876.875	67.99	
2879.013	70.64	
2881.149	72.3	
2883.284	73.3	
2885.418	75.95	
2887.551	75.62	
2889.682	78.6	
2891.811	72.96	
2893.94	73.96	
2896.067	72.63	
2898.192	77.28	
2900.317	83.58	
2902.439	80.92	
2904.561	86.56	
2906.681	92.2	
2908.8	98.17	
2910.918	109.45	
2913.034	121.39	
2915.149	118.07	
2917.263	120.72	
2919.375	114.42	
2921.486	111.44	
2923.596	96.84	
2925.704	93.53	
2927.811	87.23	
2929.917	77.61	
2932.021	75.95	
2934.124	73.3	
2936.226	76.28	
2938.327	66.99	
2940.426	62.68	
2942.524	62.68	
2944.62	63.35	
2946.715	59.03	
2948.809	63.68	
2950.902	57.04	
2952.993	57.04	
2955.083	52.4	
2957.171	50.08	
2959.259	46.1	
2961.345	44.11	
2963.429	45.11	
2965.513	38.8	
2967.595	36.15	
2969.676	39.8	
2971.755	35.82	
2973.833	31.18	
2975.91	31.18	
2977.986	30.51	
2980.06	26.2	
2982.133	26.2	
2984.205	26.2	
2986.275	25.21	
2988.345	31.51	
2990.412	29.52	
2992.479	28.52	
2994.544	26.86	
2996.608	26.2	
2998.671	30.84	
3000.732	26.86	
3002.792	23.88	
3004.851	23.55	
3006.909	26.2	
3008.965	21.89	
3011.02	18.57	
3013.074	22.88	
3015.126	18.9	
3017.177	17.58	
3019.227	13.93	
3021.276	13.27	
3023.323	10.61	
3025.369	9.95	
3027.414	8.29	
3029.458	10.28	
3031.5	5.97	
3033.541	5.64	
3035.581	5.97	
3037.619	3.98	
3039.656	5.64	
3041.692	4.97	
3043.727	5.64	
3045.76	8.62	
3047.793	4.97	
3049.824	2.65	
3051.853	-0.99	
3053.882	1.33	
3055.909	-0	
