RamanShift:204		
0.351	-386.24	
4.587	-57.71	
8.82	-20.23	
13.049	-13.27	
17.275	-11.28	
21.497	-2.65	
25.716	-4.31	
29.931	-2.98	
34.142	-0.66	
38.351	-1.99	
42.555	-0.33	
46.756	1.33	
50.954	-0.66	
55.148	-2.32	
59.339	1.66	
63.527	0.99	
67.71	-0.33	
71.891	-2.98	
76.068	-0.99	
80.241	4.31	
84.411	3.98	
88.578	8.29	
92.741	6.96	
96.901	6.3	
101.057	4.97	
105.21	6.96	
109.359	6.63	
113.505	9.29	
117.648	9.29	
121.787	12.27	
125.923	11.28	
130.055	18.24	
134.184	19.24	
138.31	18.57	
142.432	23.22	
146.551	27.53	
150.667	26.2	
154.779	30.51	
158.887	35.49	
162.993	34.82	
167.095	39.8	
171.193	43.78	
175.289	44.11	
179.381	46.1	
183.469	52.4	
187.554	57.05	
191.636	57.05	
195.715	53.73	
199.79	52.73	
203.862	57.71	
207.931	56.38	
211.996	57.05	
216.058	58.37	
220.116	57.71	
224.172	59.04	
228.224	60.36	
232.272	63.02	
236.318	67.66	
240.36	65.67	
244.399	71.97	
248.434	71.97	
252.466	73.96	
256.495	78.6	
260.521	89.22	
264.544	85.9	
268.563	94.52	
272.579	98.17	
276.591	106.8	
280.601	123.05	
284.607	151.24	
288.61	201.32	
292.609	280.26	
296.606	345.61	
300.599	378.44	
304.589	365.84	
308.575	307.13	
312.559	265.01	
316.539	253.73	
320.516	270.31	
324.49	342.95	
328.461	382.76	
332.428	406.97	
336.392	355.56	
340.353	290.55	
344.311	230.84	
348.266	186.07	
352.217	148.25	
356.165	128.69	
360.11	109.78	
364.052	114.42	
367.991	119.4	
371.926	151.57	
375.859	181.09	
379.788	190.05	
383.714	172.13	
387.637	141.95	
391.557	111.44	
395.473	86.56	
399.387	71.31	
403.297	62.68	
407.204	56.38	
411.108	55.39	
415.009	42.78	
418.907	42.12	
422.802	39.47	
426.693	36.48	
430.581	34.82	
434.467	35.49	
438.349	34.16	
442.228	30.84	
446.104	27.53	
449.977	26.86	
453.847	27.86	
457.713	37.15	
461.577	45.11	
465.438	57.38	
469.295	65.01	
473.149	73.3	
477.001	70.98	
480.849	73.3	
484.694	59.04	
488.536	46.1	
492.375	33.83	
496.211	32.17	
500.044	29.52	
503.874	28.52	
507.701	28.19	
511.525	24.87	
515.346	21.89	
519.163	24.87	
522.978	28.19	
526.79	23.55	
530.598	26.86	
534.404	29.52	
538.207	27.86	
542.006	26.53	
545.803	25.87	
549.596	25.87	
553.387	20.56	
557.175	20.23	
560.959	23.22	
564.741	22.55	
568.519	27.2	
572.295	27.53	
576.068	26.53	
579.837	28.19	
583.604	32.5	
587.368	32.17	
591.128	35.49	
594.886	39.14	
598.641	40.79	
602.393	46.1	
606.142	48.09	
609.887	55.72	
613.63	70.31	
617.37	83.58	
621.108	107.79	
624.842	144.27	
628.573	170.81	
632.301	170.81	
636.027	174.46	
639.749	175.45	
643.468	184.41	
647.185	230.84	
650.899	320.07	
654.609	495.21	
658.317	794.76	
662.022	1223.75	
665.724	1596.4	
669.423	1647.84	
673.119	1278.17	
676.813	788.13	
680.503	458.72	
684.191	331.34	
687.875	326.7	
691.557	372.14	
695.236	464.36	
698.912	531.36	
702.585	523.73	
706.256	434.5	
709.923	300.83	
713.588	204.97	
717.249	137.31	
720.908	103.48	
724.564	77.94	
728.217	67.66	
731.868	58.37	
735.515	48.42	
739.16	42.12	
742.801	42.45	
746.44	39.14	
750.076	28.85	
753.71	28.52	
757.34	28.19	
760.968	26.2	
764.593	21.23	
768.215	23.55	
771.834	24.54	
775.45	27.2	
779.064	21.23	
782.675	19.24	
786.283	18.57	
789.888	22.22	
793.49	24.87	
797.09	25.87	
800.686	27.53	
804.281	39.47	
807.872	43.12	
811.46	47.1	
815.046	53.4	
818.629	49.75	
822.209	43.78	
825.786	41.46	
829.361	50.41	
832.933	53.73	
836.502	69.98	
840.068	81.59	
843.632	91.54	
847.193	100.83	
850.751	115.75	
854.306	118.74	
857.859	114.76	
861.409	106.8	
864.956	83.91	
868.5	65.01	
872.042	51.08	
875.581	44.11	
879.117	42.78	
882.651	39.8	
886.182	37.81	
889.71	36.81	
893.235	33.83	
896.758	34.82	
900.278	39.14	
903.795	40.79	
907.31	41.79	
910.822	45.11	
914.331	41.79	
917.838	46.1	
921.341	50.74	
924.843	50.74	
928.341	54.06	
931.837	53.73	
935.33	61.36	
938.821	78.6	
942.308	97.51	
945.793	122.38	
949.276	122.72	
952.756	118.4	
956.233	88.55	
959.707	67.66	
963.179	59.37	
966.649	52.07	
970.115	51.74	
973.579	55.72	
977.04	56.05	
980.499	56.05	
983.955	54.06	
987.408	68.65	
990.859	75.95	
994.307	78.94	
997.753	103.81	
1001.196	130.34	
1004.636	163.84	
1008.074	196.35	
1011.509	210.94	
1014.941	236.81	
1018.371	248.75	
1021.798	252.73	
1025.223	249.42	
1028.645	225.2	
1032.064	211.6	
1035.481	200.33	
1038.896	195.35	
1042.307	189.05	
1045.716	179.76	
1049.123	171.8	
1052.527	165.5	
1055.928	153.56	
1059.327	140.63	
1062.723	126.36	
1066.117	117.74	
1069.508	95.52	
1072.897	93.53	
1076.283	82.25	
1079.666	83.91	
1083.047	81.59	
1086.425	85.9	
1089.801	74.96	
1093.174	70.64	
1096.545	62.68	
1099.913	48.75	
1103.279	51.41	
1106.642	43.78	
1110.002	38.14	
1113.36	38.8	
1116.716	32.17	
1120.069	29.52	
1123.419	22.88	
1126.767	20.56	
1130.113	14.26	
1133.456	11.28	
1136.796	12.6	
1140.134	15.26	
1143.47	12.6	
1146.802	10.94	
1150.133	14.26	
1153.461	15.59	
1156.786	16.58	
1160.109	13.27	
1163.43	10.28	
1166.748	17.58	
1170.063	14.26	
1173.376	13.6	
1176.687	16.58	
1179.995	10.94	
1183.3	18.24	
1186.603	17.25	
1189.904	22.88	
1193.202	24.54	
1196.498	28.85	
1199.791	25.54	
1203.082	21.89	
1206.37	28.19	
1209.656	28.52	
1212.94	20.89	
1216.221	25.87	
1219.499	27.2	
1222.775	23.55	
1226.049	26.86	
1229.32	29.52	
1232.589	31.84	
1235.856	32.17	
1239.12	38.14	
1242.381	40.46	
1245.64	42.12	
1248.897	40.79	
1252.151	36.81	
1255.403	37.81	
1258.652	41.13	
1261.9	45.77	
1265.144	44.11	
1268.386	43.45	
1271.626	44.11	
1274.864	44.77	
1278.099	48.42	
1281.331	38.47	
1284.562	48.09	
1287.789	39.14	
1291.015	40.46	
1294.238	40.13	
1297.459	36.15	
1300.677	37.15	
1303.893	44.11	
1307.106	40.13	
1310.318	44.44	
1313.526	40.13	
1316.733	39.47	
1319.937	32.83	
1323.139	31.18	
1326.338	33.5	
1329.535	30.51	
1332.73	31.18	
1335.922	27.86	
1339.112	33.83	
1342.3	28.85	
1345.485	32.17	
1348.668	31.18	
1351.848	31.18	
1355.027	30.84	
1358.203	29.85	
1361.376	40.13	
1364.547	34.49	
1367.716	46.76	
1370.883	45.77	
1374.047	52.07	
1377.209	52.07	
1380.369	57.71	
1383.526	55.39	
1386.681	55.39	
1389.834	55.72	
1392.984	64.34	
1396.132	81.59	
1399.278	95.52	
1402.421	119.07	
1405.562	149.25	
1408.701	191.04	
1411.838	218.91	
1414.972	223.88	
1418.104	199.34	
1421.234	173.46	
1424.361	142.29	
1427.486	111.77	
1430.609	96.85	
1433.73	82.92	
1436.848	74.62	
1439.964	71.31	
1443.078	68.65	
1446.189	74.62	
1449.299	80.59	
1452.405	91.54	
1455.51	86.9	
1458.613	85.57	
1461.713	77.94	
1464.811	67	
1467.906	59.37	
1471	52.07	
1474.091	39.8	
1477.18	32.83	
1480.267	22.88	
1483.351	17.58	
1486.433	15.92	
1489.513	11.94	
1492.591	8.62	
1495.666	2.98	
1498.74	8.95	
1501.811	3.65	
1504.879	3.98	
1507.946	5.31	
1511.01	1.66	
1514.073	0	
1517.132	1.66	
1520.19	4.31	
1523.246	-1.66	
1526.299	1.33	
1529.35	1.99	
1532.399	0.99	
1535.446	-0.66	
1538.49	1.66	
1541.532	-1.99	
1544.572	0.66	
1547.61	-3.32	
1550.646	-1.99	
1553.68	-7.63	
1556.711	-3.65	
1559.74	-2.65	
1562.767	0.33	
1565.792	-5.31	
1568.814	-0.66	
1571.835	-4.31	
1574.853	-1.99	
1577.869	-3.98	
1580.883	-1.33	
1583.895	0.66	
1586.904	0	
1589.912	0.66	
1592.917	0	
1595.92	-5.97	
1598.921	3.32	
1601.92	-6.96	
1604.917	-3.98	
1607.911	-2.65	
1610.903	1.66	
1613.894	-1.33	
1616.882	-1.33	
1619.868	1.99	
1622.851	-3.65	
1625.833	-1.33	
1628.812	-1.99	
1631.79	-3.32	
1634.765	-9.62	
1637.738	0.66	
1640.709	-2.98	
1643.678	1.66	
1646.645	-0.99	
1649.609	-3.98	
1652.572	-1.99	
1655.532	-2.32	
1658.49	-2.98	
1661.447	-1.66	
1664.401	-2.65	
1667.353	-6.63	
1670.302	-0.99	
1673.25	-0.99	
1676.196	-5.64	
1679.139	-2.98	
1682.081	-1.99	
1685.02	-2.65	
1687.957	-2.65	
1690.893	-4.64	
1693.826	-4.64	
1696.757	-0.66	
1699.686	-4.31	
1702.612	-2.32	
1705.537	-7.96	
1708.46	-0.99	
1711.38	-5.97	
1714.299	-1.66	
1717.215	-0.33	
1720.13	-2.65	
1723.042	0.33	
1725.952	-5.64	
1728.86	-1.66	
1731.767	-1.33	
1734.671	0.99	
1737.573	-6.63	
1740.473	0.33	
1743.37	-0.99	
1746.266	-5.97	
1749.16	-4.64	
1752.052	-3.98	
1754.942	3.65	
1757.829	-5.64	
1760.715	0.33	
1763.598	-4.97	
1766.48	-2.65	
1769.36	-0.99	
1772.237	0	
1775.112	-5.31	
1777.986	-4.64	
1780.857	-4.64	
1783.727	-3.32	
1786.594	-0.99	
1789.459	-2.32	
1792.323	-7.96	
1795.184	0.33	
1798.043	-0.99	
1800.9	-7.3	
1803.756	-0.99	
1806.609	0.66	
1809.46	-0.66	
1812.309	-7.3	
1815.157	-4.31	
1818.002	-3.65	
1820.845	-5.64	
1823.686	-2.65	
1826.526	-1.33	
1829.363	-3.32	
1832.198	-1.99	
1835.031	-7.3	
1837.863	0	
1840.692	-0.33	
1843.519	-4.97	
1846.345	-3.98	
1849.168	-4.31	
1851.989	0.33	
1854.809	-1.66	
1857.626	-5.97	
1860.441	-3.98	
1863.255	-6.63	
1866.066	-1.99	
1868.876	-1.66	
1871.684	-0.99	
1874.489	-2.32	
1877.293	-2.98	
1880.095	-5.97	
1882.894	-0.99	
1885.692	-4.31	
1888.488	0.66	
1891.282	-4.31	
1894.074	-3.98	
1896.864	-10.94	
1899.652	-4.64	
1902.438	1.66	
1905.222	1.99	
1908.004	-6.3	
1910.785	-3.65	
1913.563	-3.32	
1916.339	-3.98	
1919.114	-0.66	
1921.886	-2.32	
1924.657	-4.97	
1927.426	-3.32	
1930.193	-5.64	
1932.957	0.99	
1935.72	1.99	
1938.481	-2.98	
1941.24	-0.33	
1943.998	-0.66	
1946.753	-4.64	
1949.506	-0.66	
1952.258	-1.99	
1955.007	-2.32	
1957.755	1.66	
1960.501	0.33	
1963.245	0	
1965.986	-2.98	
1968.726	2.98	
1971.465	-9.95	
1974.201	-2.65	
1976.935	-0.99	
1979.668	-1.66	
1982.398	-2.65	
1985.127	-0.99	
1987.854	1.33	
1990.579	-1.66	
1993.302	-2.32	
1996.023	-0.99	
1998.742	-4.64	
2001.46	-3.98	
2004.175	-3.32	
2006.889	-1.99	
2009.6	0.66	
2012.31	0	
2015.018	3.65	
2017.725	0	
2020.429	2.32	
2023.131	1.66	
2025.832	-1.33	
2028.531	-2.65	
2031.228	-1.66	
2033.923	-4.97	
2036.616	-4.64	
2039.307	-0.33	
2041.997	-0.66	
2044.684	0.66	
2047.37	-0.99	
2050.054	0.33	
2052.736	0.66	
2055.416	0.66	
2058.095	-4.64	
2060.771	-2.32	
2063.446	2.98	
2066.119	-0.66	
2068.79	1.99	
2071.459	-1.33	
2074.127	2.98	
2076.792	2.32	
2079.456	-0.33	
2082.118	-0.66	
2084.778	-1.99	
2087.436	-2.65	
2090.093	-3.98	
2092.747	-0.99	
2095.4	-2.65	
2098.051	-0.33	
2100.7	-3.32	
2103.348	0.66	
2105.993	0.33	
2108.637	-0.33	
2111.279	-0.66	
2113.919	3.98	
2116.558	2.98	
2119.194	-2.98	
2121.829	0.66	
2124.462	-1.99	
2127.093	-0.99	
2129.723	-0.66	
2132.35	-2.65	
2134.976	-2.32	
2137.6	-3.98	
2140.223	2.32	
2142.843	-1.66	
2145.462	-1.99	
2148.079	3.98	
2150.694	0.66	
2153.307	-0.66	
2155.919	-1.66	
2158.528	1.66	
2161.137	-0.33	
2163.743	0.33	
2166.347	0.33	
2168.95	-2.32	
2171.551	-0.99	
2174.15	-1.66	
2176.748	5.97	
2179.343	0	
2181.937	-1.66	
2184.529	2.65	
2187.12	0	
2189.708	2.32	
2192.295	0.33	
2194.88	-3.98	
2197.464	0.33	
2200.045	-0.33	
2202.625	1.99	
2205.203	0.99	
2207.78	-0.99	
2210.355	-0.66	
2212.928	-4.31	
2215.499	0.99	
2218.068	2.32	
2220.636	-3.98	
2223.202	0.66	
2225.766	1.99	
2228.329	2.98	
2230.889	-1.33	
2233.449	0.99	
2236.006	0.66	
2238.562	2.65	
2241.115	1.66	
2243.668	0.33	
2246.218	-3.65	
2248.767	-4.31	
2251.314	2.98	
2253.859	-0.99	
2256.403	-0.66	
2258.945	-0.33	
2261.485	1.33	
2264.023	0.99	
2266.56	-2.98	
2269.095	2.65	
2271.629	0	
2274.16	0.99	
2276.69	-2.65	
2279.219	-2.98	
2281.745	-0.33	
2284.27	-0.33	
2286.793	0	
2289.315	-4.31	
2291.835	-1.66	
2294.353	-4.64	
2296.869	-1.66	
2299.384	0.99	
2301.897	-2.32	
2304.408	1.66	
2306.918	3.65	
2309.426	-1.33	
2311.932	-2.98	
2314.437	0.66	
2316.94	1.66	
2319.441	-0.66	
2321.941	-2.65	
2324.439	2.98	
2326.935	-1.33	
2329.43	-1.33	
2331.923	-1.66	
2334.414	0.66	
2336.904	-0.99	
2339.392	-1.66	
2341.878	3.98	
2344.363	2.65	
2346.846	1.99	
2349.328	2.65	
2351.807	-0.99	
2354.285	0.99	
2356.762	-0.66	
2359.237	-0.33	
2361.71	2.65	
2364.181	-2.98	
2366.651	0.66	
2369.119	0.33	
2371.586	1.33	
2374.051	2.98	
2376.514	-3.98	
2378.976	-1.33	
2381.436	1.66	
2383.894	1.66	
2386.351	2.32	
2388.806	-1.33	
2391.259	2.65	
2393.711	1.99	
2396.161	-1.33	
2398.61	0.33	
2401.057	0.99	
2403.502	-0.99	
2405.946	-1.33	
2408.388	0.33	
2410.829	2.98	
2413.268	-0.99	
2415.705	-2.32	
2418.141	-2.65	
2420.575	-1.33	
2423.007	0	
2425.438	0.33	
2427.867	-5.97	
2430.295	-1.33	
2432.721	0.33	
2435.145	-0.66	
2437.568	-0.33	
2439.989	-1.33	
2442.409	-3.32	
2444.827	-1.99	
2447.243	-2.65	
2449.658	-0.99	
2452.071	-1.66	
2454.483	-2.32	
2456.893	-1.99	
2459.302	-0.33	
2461.709	0.66	
2464.114	-0.33	
2466.518	1.99	
2468.92	0.33	
2471.32	0	
2473.719	2.32	
2476.117	-0.66	
2478.512	-2.98	
2480.907	-0.99	
2483.299	-3.98	
2485.691	-3.32	
2488.08	0.33	
2490.468	-6.3	
2492.854	1.66	
2495.239	1.33	
2497.623	0	
2500.004	-1.33	
2502.384	-3.65	
2504.763	-1.99	
2507.14	0	
2509.515	-3.32	
2511.889	-1.66	
2514.262	-0.33	
2516.633	-3.32	
2519.002	0.33	
2521.369	0	
2523.736	0.99	
2526.1	-5.31	
2528.463	0.33	
2530.825	-3.65	
2533.185	0.33	
2535.543	0.33	
2537.9	-3.98	
2540.255	-4.31	
2542.609	-2.65	
2544.961	2.98	
2547.312	-2.98	
2549.661	-1.99	
2552.009	-0.33	
2554.355	-1.33	
2556.7	0.66	
2559.043	-1.33	
2561.384	-0.99	
2563.724	-2.98	
2566.063	0.33	
2568.4	1.66	
2570.735	-1.66	
2573.069	-4.31	
2575.402	4.64	
2577.733	-0.33	
2580.062	0.33	
2582.39	0.33	
2584.716	-0.66	
2587.041	0.33	
2589.364	-0.99	
2591.686	-3.32	
2594.006	-1.33	
2596.325	2.98	
2598.643	1.33	
2600.958	-1.33	
2603.273	-1.99	
2605.585	-2.32	
2607.897	-3.65	
2610.206	-3.65	
2612.515	0.66	
2614.822	2.32	
2617.127	0	
2619.431	-0.99	
2621.733	0.99	
2624.034	1.33	
2626.333	-0.99	
2628.631	-0.33	
2630.927	-4.64	
2633.222	-0.33	
2635.515	-0.99	
2637.807	0.66	
2640.098	3.65	
2642.387	-3.65	
2644.674	1.33	
2646.96	-4.97	
2649.245	-1.66	
2651.528	1.33	
2653.809	-0.99	
2656.089	-0.99	
2658.368	0.99	
2660.645	3.65	
2662.921	0.33	
2665.195	-0.99	
2667.468	-1.66	
2669.739	0	
2672.009	-1.33	
2674.277	-0.66	
2676.544	-1.33	
2678.809	-2.32	
2681.073	-3.32	
2683.336	0.99	
2685.597	2.32	
2687.856	3.65	
2690.115	0.99	
2692.371	4.31	
2694.626	3.65	
2696.88	4.97	
2699.133	1.99	
2701.383	7.3	
2703.633	3.98	
2705.881	4.97	
2708.127	6.63	
2710.373	3.98	
2712.616	4.31	
2714.859	7.63	
2717.099	5.97	
2719.339	1.66	
2721.577	5.97	
2723.813	5.97	
2726.048	0.66	
2728.282	3.32	
2730.514	2.98	
2732.745	2.65	
2734.974	1.66	
2737.202	5.31	
2739.428	7.3	
2741.653	4.64	
2743.877	8.62	
2746.099	5.97	
2748.32	8.29	
2750.539	5.64	
2752.757	9.29	
2754.974	5.31	
2757.189	6.63	
2759.403	6.63	
2761.615	7.3	
2763.826	9.95	
2766.035	6.63	
2768.243	7.63	
2770.45	7.63	
2772.655	6.96	
2774.859	8.29	
2777.062	9.95	
2779.263	7.3	
2781.462	13.27	
2783.66	12.93	
2785.857	13.93	
2788.053	14.26	
2790.247	15.92	
2792.439	12.27	
2794.631	16.91	
2796.82	16.58	
2799.009	19.24	
2801.196	21.89	
2803.382	22.88	
2805.566	21.89	
2807.749	21.89	
2809.93	23.22	
2812.11	26.86	
2814.289	24.21	
2816.466	25.87	
2818.642	26.53	
2820.817	26.86	
2822.99	31.51	
2825.162	32.5	
2827.332	27.86	
2829.502	32.17	
2831.669	34.49	
2833.836	37.48	
2836	39.47	
2838.164	37.15	
2840.326	41.13	
2842.487	42.45	
2844.647	39.47	
2846.805	50.74	
2848.961	48.42	
2851.117	51.41	
2853.271	51.41	
2855.423	54.72	
2857.575	55.72	
2859.725	60.36	
2861.873	64.67	
2864.02	62.02	
2866.166	68.65	
2868.311	65.34	
2870.454	73.63	
2872.596	71.64	
2874.736	75.29	
2876.875	79.6	
2879.013	83.25	
2881.149	83.58	
2883.284	83.58	
2885.418	78.6	
2887.551	85.57	
2889.682	85.57	
2891.811	83.58	
2893.94	88.55	
2896.067	89.88	
2898.192	95.52	
2900.317	103.48	
2902.439	113.76	
2904.561	132.33	
2906.681	148.58	
2908.8	172.47	
2910.918	209.61	
2913.034	231.17	
2915.149	238.14	
2917.263	238.47	
2919.375	225.86	
2921.486	197.01	
2923.596	185.07	
2925.704	156.88	
2927.811	137.97	
2929.917	121.72	
2932.021	105.8	
2934.124	96.84	
2936.226	82.58	
2938.327	79.27	
2940.426	76.28	
2942.524	65	
2944.62	64.34	
2946.715	63.01	
2948.809	57.71	
2950.902	54.72	
2952.993	54.06	
2955.083	48.09	
2957.171	51.08	
2959.259	44.11	
2961.345	40.13	
2963.429	42.45	
2965.513	41.13	
2967.595	39.14	
2969.676	39.8	
2971.755	33.17	
2973.833	36.15	
2975.91	38.14	
2977.986	34.49	
2980.06	38.47	
2982.133	37.81	
2984.205	39.47	
2986.275	44.11	
2988.345	46.1	
2990.412	52.4	
2992.479	57.38	
2994.544	62.35	
2996.608	60.03	
2998.671	64.34	
3000.732	58.04	
3002.792	66.99	
3004.851	62.35	
3006.909	63.35	
3008.965	61.36	
3011.02	53.06	
3013.074	45.11	
3015.126	40.79	
3017.177	36.48	
3019.227	30.84	
3021.276	27.2	
3023.323	24.54	
3025.369	25.21	
3027.414	19.9	
3029.458	17.58	
3031.5	21.56	
3033.541	13.27	
3035.581	12.27	
3037.619	14.26	
3039.656	13.6	
3041.692	11.61	
3043.727	10.61	
3045.76	8.29	
3047.793	8.29	
3049.824	5.97	
3051.853	0.99	
3053.882	-0.33	
3055.909	0.66	
