RamanShift:204		
0.351	-55.08	
4.587	-10.28	
8.82	-2.65	
13.049	-1.99	
17.275	-0.33	
21.497	5.64	
25.716	0	
29.931	0.99	
34.142	3.65	
38.351	4.31	
42.555	-0.66	
46.756	3.32	
50.954	2.32	
55.148	1.99	
59.339	0.99	
63.527	-0.99	
67.71	1.66	
71.891	-1.33	
76.068	0	
80.241	0.99	
84.411	1.66	
88.578	3.98	
92.741	2.65	
96.901	4.64	
101.057	1.99	
105.21	3.32	
109.359	5.97	
113.505	3.98	
117.648	6.3	
121.787	5.31	
125.923	5.64	
130.055	11.28	
134.184	11.61	
138.31	11.28	
142.432	11.94	
146.551	12.27	
150.667	16.91	
154.779	17.91	
158.887	18.9	
162.993	22.88	
167.095	21.23	
171.193	27.2	
175.289	26.86	
179.381	34.82	
183.469	30.51	
187.554	34.82	
191.636	33.83	
195.715	34.82	
199.79	31.18	
203.862	40.79	
207.931	34.49	
211.996	40.13	
216.058	44.44	
220.116	39.47	
224.172	36.48	
228.224	42.78	
232.272	44.11	
236.318	45.11	
240.36	43.12	
244.399	44.11	
248.434	49.09	
252.466	45.77	
256.495	52.73	
260.521	43.45	
264.544	37.81	
268.563	46.1	
272.579	50.08	
276.591	43.45	
280.601	44.11	
284.607	44.44	
288.61	46.43	
292.609	44.44	
296.606	41.79	
300.599	43.78	
304.589	43.12	
308.575	44.11	
312.559	44.77	
316.539	44.77	
320.516	44.11	
324.49	44.77	
328.461	45.77	
332.428	48.09	
336.392	44.77	
340.353	40.13	
344.311	41.46	
348.266	35.49	
352.217	37.48	
356.165	39.47	
360.11	35.82	
364.052	35.49	
367.991	27.86	
371.926	29.52	
375.859	26.53	
379.788	30.51	
383.714	26.86	
387.637	32.83	
391.557	40.46	
395.473	40.46	
399.387	38.47	
403.297	41.13	
407.204	43.45	
411.108	55.72	
415.009	45.77	
418.907	35.49	
422.802	29.19	
426.693	33.17	
430.581	33.17	
434.467	31.18	
438.349	32.17	
442.228	25.87	
446.104	22.22	
449.977	29.19	
453.847	28.85	
457.713	33.5	
461.577	37.48	
465.438	42.78	
469.295	54.06	
473.149	65.67	
477.001	66	
480.849	57.38	
484.694	54.39	
488.536	51.74	
492.375	40.79	
496.211	34.16	
500.044	31.51	
503.874	35.49	
507.701	32.17	
511.525	37.48	
515.346	34.82	
519.163	35.82	
522.978	39.8	
526.79	38.14	
530.598	33.83	
534.404	32.17	
538.207	30.84	
542.006	33.17	
545.803	31.51	
549.596	27.86	
553.387	24.87	
557.175	28.52	
560.959	28.52	
564.741	16.58	
568.519	21.89	
572.295	21.89	
576.068	22.88	
579.837	24.87	
583.604	17.91	
587.368	17.91	
591.128	21.56	
594.886	14.59	
598.641	14.59	
602.393	25.21	
606.142	17.91	
609.887	15.26	
613.63	19.24	
617.37	17.25	
621.108	18.57	
624.842	12.27	
628.573	19.24	
632.301	22.22	
636.027	20.23	
639.749	18.57	
643.468	17.91	
647.185	14.59	
650.899	17.58	
654.609	16.91	
658.317	22.55	
662.022	19.24	
665.724	14.59	
669.423	21.56	
673.119	16.91	
676.813	21.56	
680.503	19.24	
684.191	16.25	
687.875	16.91	
691.557	13.27	
695.236	14.59	
698.912	22.22	
702.585	16.58	
706.256	12.93	
709.923	14.59	
713.588	18.24	
717.249	9.29	
720.908	9.95	
724.564	7.96	
728.217	10.28	
731.868	8.62	
735.515	17.25	
739.16	14.92	
742.801	16.25	
746.44	13.93	
750.076	26.2	
753.71	19.24	
757.34	22.22	
760.968	19.57	
764.593	20.89	
768.215	23.88	
771.834	25.87	
775.45	29.52	
779.064	32.5	
782.675	36.81	
786.283	44.77	
789.888	48.75	
793.49	54.39	
797.09	62.02	
800.686	60.69	
804.281	69.65	
807.872	69.32	
811.46	84.24	
815.046	86.9	
818.629	92.2	
822.209	82.92	
825.786	90.54	
829.361	89.88	
832.933	95.85	
836.502	108.12	
840.068	113.76	
843.632	121.06	
847.193	136.98	
850.751	150.24	
854.306	169.15	
857.859	178.11	
861.409	180.43	
864.956	163.51	
868.5	134.99	
872.042	120.06	
875.581	108.12	
879.117	88.55	
882.651	81.92	
886.182	76.28	
889.71	72.3	
893.235	50.08	
896.758	45.44	
900.278	42.78	
903.795	46.76	
907.31	36.81	
910.822	43.78	
914.331	39.8	
917.838	44.11	
921.341	40.79	
924.843	32.83	
928.341	35.16	
931.837	29.85	
935.33	29.19	
938.821	29.52	
942.308	23.88	
945.793	20.23	
949.276	26.86	
952.756	24.54	
956.233	26.53	
959.707	22.22	
963.179	21.89	
966.649	22.55	
970.115	27.53	
973.579	22.55	
977.04	34.16	
980.499	32.17	
983.955	27.53	
987.408	32.83	
990.859	33.5	
994.307	31.18	
997.753	40.79	
1001.196	41.46	
1004.636	51.41	
1008.074	53.73	
1011.509	52.73	
1014.941	63.68	
1018.371	72.63	
1021.798	88.22	
1025.223	86.23	
1028.645	91.54	
1032.064	100.83	
1035.481	108.79	
1038.896	107.13	
1042.307	111.44	
1045.716	118.07	
1049.123	123.38	
1052.527	123.05	
1055.928	127.36	
1059.327	120.06	
1062.723	117.74	
1066.117	109.45	
1069.508	111.44	
1072.897	107.13	
1076.283	113.76	
1079.666	115.42	
1083.047	113.1	
1086.425	108.45	
1089.801	100.16	
1093.174	93.53	
1096.545	94.19	
1099.913	84.57	
1103.279	74.96	
1106.642	65.01	
1110.002	67.66	
1113.36	72.63	
1116.716	64.34	
1120.069	68.65	
1123.419	64.01	
1126.767	57.38	
1130.113	60.69	
1133.456	55.39	
1136.796	48.42	
1140.134	48.42	
1143.47	42.45	
1146.802	37.81	
1150.133	39.14	
1153.461	27.2	
1156.786	32.17	
1160.109	31.84	
1163.43	30.18	
1166.748	31.51	
1170.063	35.16	
1173.376	36.15	
1176.687	31.84	
1179.995	37.81	
1183.3	41.79	
1186.603	44.11	
1189.904	44.77	
1193.202	41.13	
1196.498	48.42	
1199.791	51.41	
1203.082	54.39	
1206.37	59.04	
1209.656	49.75	
1212.94	53.73	
1216.221	61.03	
1219.499	60.03	
1222.775	60.69	
1226.049	65.01	
1229.32	61.36	
1232.589	67.99	
1235.856	73.63	
1239.12	76.28	
1242.381	79.27	
1245.64	82.92	
1248.897	90.88	
1252.151	85.57	
1255.403	83.25	
1258.652	85.9	
1261.9	88.55	
1265.144	95.52	
1268.386	102.82	
1271.626	95.19	
1274.864	101.49	
1278.099	97.51	
1281.331	95.85	
1284.562	93.53	
1287.789	93.53	
1291.015	89.22	
1294.238	75.95	
1297.459	77.94	
1300.677	73.63	
1303.893	72.63	
1307.106	63.02	
1310.318	66	
1313.526	62.35	
1316.733	61.03	
1319.937	56.71	
1323.139	66.66	
1326.338	61.36	
1329.535	55.72	
1332.73	53.07	
1335.922	54.72	
1339.112	59.7	
1342.3	55.39	
1345.485	52.4	
1348.668	50.41	
1351.848	56.05	
1355.027	56.05	
1358.203	55.06	
1361.376	53.4	
1364.547	48.75	
1367.716	54.06	
1370.883	52.73	
1374.047	54.06	
1377.209	50.74	
1380.369	56.05	
1383.526	52.07	
1386.681	53.4	
1389.834	55.06	
1392.984	54.72	
1396.132	54.39	
1399.278	49.42	
1402.421	60.36	
1405.562	55.06	
1408.701	55.06	
1411.838	63.02	
1414.972	61.03	
1418.104	56.05	
1421.234	62.35	
1424.361	55.72	
1427.486	68.32	
1430.609	67.33	
1433.73	59.37	
1436.848	76.95	
1439.964	75.95	
1443.078	85.24	
1446.189	98.17	
1449.299	101.82	
1452.405	121.06	
1455.51	110.45	
1458.613	110.45	
1461.713	107.46	
1464.811	103.81	
1467.906	95.19	
1471	86.23	
1474.091	81.26	
1477.18	67	
1480.267	58.7	
1483.351	50.41	
1486.433	44.11	
1489.513	41.79	
1492.591	33.5	
1495.666	33.5	
1498.74	32.17	
1501.811	30.18	
1504.879	25.87	
1507.946	22.22	
1511.01	25.87	
1514.073	18.57	
1517.132	22.22	
1520.19	21.23	
1523.246	17.91	
1526.299	22.55	
1529.35	19.57	
1532.399	21.89	
1535.446	19.9	
1538.49	12.93	
1541.532	15.92	
1544.572	17.58	
1547.61	18.24	
1550.646	16.91	
1553.68	17.91	
1556.711	17.91	
1559.74	15.26	
1562.767	14.92	
1565.792	11.28	
1568.814	11.61	
1571.835	12.6	
1574.853	11.94	
1577.869	8.62	
1580.883	17.58	
1583.895	10.28	
1586.904	11.28	
1589.912	13.93	
1592.917	9.29	
1595.92	7.63	
1598.921	13.6	
1601.92	8.62	
1604.917	9.29	
1607.911	10.61	
1610.903	11.28	
1613.894	7.63	
1616.882	10.28	
1619.868	10.94	
1622.851	11.94	
1625.833	8.62	
1628.812	4.64	
1631.79	6.63	
1634.765	8.29	
1637.738	10.28	
1640.709	10.61	
1643.678	5.31	
1646.645	8.95	
1649.609	5.97	
1652.572	8.29	
1655.532	4.31	
1658.49	2.98	
1661.447	3.98	
1664.401	7.63	
1667.353	5.64	
1670.302	4.64	
1673.25	0.66	
1676.196	7.63	
1679.139	0.66	
1682.081	5.64	
1685.02	2.32	
1687.957	1.33	
1690.893	2.65	
1693.826	3.32	
1696.757	6.63	
1699.686	4.64	
1702.612	4.64	
1705.537	1.66	
1708.46	3.32	
1711.38	0.99	
1714.299	1.99	
1717.215	0	
1720.13	4.31	
1723.042	4.31	
1725.952	3.32	
1728.86	3.98	
1731.767	3.98	
1734.671	0.66	
1737.573	2.98	
1740.473	3.65	
1743.37	1.99	
1746.266	2.98	
1749.16	-0.66	
1752.052	2.65	
1754.942	4.64	
1757.829	0.66	
1760.715	1.99	
1763.598	0	
1766.48	3.65	
1769.36	5.97	
1772.237	2.32	
1775.112	2.65	
1777.986	5.97	
1780.857	3.32	
1783.727	0.66	
1786.594	3.65	
1789.459	0	
1792.323	2.32	
1795.184	-0.33	
1798.043	3.98	
1800.9	2.98	
1803.756	-0.66	
1806.609	-1.66	
1809.46	-2.32	
1812.309	-3.98	
1815.157	3.32	
1818.002	0.66	
1820.845	6.63	
1823.686	-0.66	
1826.526	0	
1829.363	0.66	
1832.198	0	
1835.031	0	
1837.863	0	
1840.692	-3.32	
1843.519	0	
1846.345	-0.99	
1849.168	-2.98	
1851.989	-3.32	
1854.809	0.99	
1857.626	0	
1860.441	-1.99	
1863.255	1.66	
1866.066	-0.99	
1868.876	-1.99	
1871.684	-4.64	
1874.489	-0.99	
1877.293	-3.65	
1880.095	-0.99	
1882.894	-1.99	
1885.692	-2.32	
1888.488	2.65	
1891.282	-1.33	
1894.074	0	
1896.864	1.66	
1899.652	-0.99	
1902.438	0.99	
1905.222	1.33	
1908.004	-1.33	
1910.785	-2.65	
1913.563	-1.99	
1916.339	0.99	
1919.114	2.32	
1921.886	-0.66	
1924.657	-2.32	
1927.426	1.66	
1930.193	-3.98	
1932.957	-6.3	
1935.72	-2.65	
1938.481	-3.98	
1941.24	4.31	
1943.998	-6.63	
1946.753	-4.64	
1949.506	-4.64	
1952.258	3.65	
1955.007	1.99	
1957.755	0.33	
1960.501	-1.33	
1963.245	-3.98	
1965.986	-1.66	
1968.726	0	
1971.465	-2.98	
1974.201	4.97	
1976.935	2.32	
1979.668	-4.97	
1982.398	-2.32	
1985.127	0.33	
1987.854	-2.98	
1990.579	0	
1993.302	1.66	
1996.023	-1.66	
1998.742	-4.31	
2001.46	-0.66	
2004.175	-2.32	
2006.889	3.65	
2009.6	-3.32	
2012.31	0.66	
2015.018	-0.66	
2017.725	1.99	
2020.429	0.99	
2023.131	-0.33	
2025.832	-2.32	
2028.531	-0.66	
2031.228	-0.99	
2033.923	-1.33	
2036.616	0	
2039.307	-3.32	
2041.997	0.66	
2044.684	-1.33	
2047.37	-0.99	
2050.054	-4.31	
2052.736	-1.66	
2055.416	1.99	
2058.095	-0.99	
2060.771	-2.32	
2063.446	-3.32	
2066.119	0.99	
2068.79	-1.99	
2071.459	0	
2074.127	-5.64	
2076.792	-1.33	
2079.456	0	
2082.118	-2.32	
2084.778	-2.32	
2087.436	0.99	
2090.093	0.99	
2092.747	0	
2095.4	-1.33	
2098.051	-0.99	
2100.7	0.99	
2103.348	-0.66	
2105.993	-3.65	
2108.637	-1.66	
2111.279	-2.65	
2113.919	-4.31	
2116.558	-0.66	
2119.194	-2.32	
2121.829	-0.99	
2124.462	-3.65	
2127.093	1.33	
2129.723	0.66	
2132.35	1.33	
2134.976	-1.99	
2137.6	-2.98	
2140.223	0.66	
2142.843	2.32	
2145.462	-2.98	
2148.079	-0.33	
2150.694	-2.65	
2153.307	-7.3	
2155.919	0.99	
2158.528	0.99	
2161.137	0	
2163.743	-0.33	
2166.347	2.65	
2168.95	0.33	
2171.551	-0.99	
2174.15	-3.98	
2176.748	-0.66	
2179.343	-3.98	
2181.937	-0.66	
2184.529	0.66	
2187.12	-1.33	
2189.708	-0.99	
2192.295	-0.99	
2194.88	-1.33	
2197.464	0.33	
2200.045	-0.33	
2202.625	-0.33	
2205.203	-1.66	
2207.78	-3.32	
2210.355	1.99	
2212.928	-1.66	
2215.499	0.33	
2218.068	-0.33	
2220.636	-0.33	
2223.202	1.33	
2225.766	-0.66	
2228.329	-1.99	
2230.889	-1.66	
2233.449	2.32	
2236.006	-0.66	
2238.562	-3.65	
2241.115	-0.99	
2243.668	1.33	
2246.218	0.66	
2248.767	0.33	
2251.314	3.65	
2253.859	-1.66	
2256.403	-0.33	
2258.945	0.33	
2261.485	-1.33	
2264.023	0.33	
2266.56	1.66	
2269.095	-3.32	
2271.629	-0.66	
2274.16	0.99	
2276.69	0.66	
2279.219	-1.33	
2281.745	-2.65	
2284.27	-0.33	
2286.793	0	
2289.315	2.65	
2291.835	-1.66	
2294.353	3.65	
2296.869	3.32	
2299.384	3.32	
2301.897	2.32	
2304.408	-0.33	
2306.918	-5.97	
2309.426	0.33	
2311.932	-0.66	
2314.437	4.31	
2316.94	-2.65	
2319.441	-0.66	
2321.941	0.66	
2324.439	-0.33	
2326.935	-0.99	
2329.43	-2.65	
2331.923	0	
2334.414	0	
2336.904	-1.99	
2339.392	1.66	
2341.878	-1.99	
2344.363	3.32	
2346.846	-0.66	
2349.328	-0.99	
2351.807	-1.99	
2354.285	2.32	
2356.762	0	
2359.237	-0.33	
2361.71	-0.66	
2364.181	0	
2366.651	-0.99	
2369.119	-2.65	
2371.586	-3.98	
2374.051	-3.65	
2376.514	-0.99	
2378.976	-2.32	
2381.436	0.99	
2383.894	2.65	
2386.351	1.99	
2388.806	1.99	
2391.259	-1.33	
2393.711	0	
2396.161	1.66	
2398.61	0.33	
2401.057	0	
2403.502	-3.32	
2405.946	-1.66	
2408.388	-4.31	
2410.829	-2.32	
2413.268	0	
2415.705	-2.98	
2418.141	0	
2420.575	-0.66	
2423.007	-0.66	
2425.438	0	
2427.867	0.33	
2430.295	-2.65	
2432.721	-4.64	
2435.145	-3.98	
2437.568	-4.64	
2439.989	0.33	
2442.409	1.33	
2444.827	0.33	
2447.243	-5.64	
2449.658	-0.99	
2452.071	-2.98	
2454.483	-0.99	
2456.893	0.33	
2459.302	-4.64	
2461.709	1.33	
2464.114	2.32	
2466.518	0.33	
2468.92	0	
2471.32	0.33	
2473.719	2.65	
2476.117	-4.31	
2478.512	-0.33	
2480.907	-2.32	
2483.299	-3.32	
2485.691	-0.99	
2488.08	0.99	
2490.468	0.33	
2492.854	1.99	
2495.239	-3.32	
2497.623	0	
2500.004	0.99	
2502.384	-2.65	
2504.763	-0.33	
2507.14	-0.33	
2509.515	-5.31	
2511.889	-2.98	
2514.262	-0.99	
2516.633	1.33	
2519.002	-2.65	
2521.369	-2.65	
2523.736	-0.66	
2526.1	0.99	
2528.463	-3.98	
2530.825	-1.33	
2533.185	-2.32	
2535.543	0	
2537.9	-0.33	
2540.255	-2.32	
2542.609	-2.98	
2544.961	-1.99	
2547.312	0.33	
2549.661	-1.99	
2552.009	-0.66	
2554.355	-0.99	
2556.7	-4.64	
2559.043	-4.64	
2561.384	-2.65	
2563.724	-1.33	
2566.063	1.33	
2568.4	-2.65	
2570.735	-2.98	
2573.069	-3.65	
2575.402	-3.32	
2577.733	-4.64	
2580.062	-6.63	
2582.39	-5.64	
2584.716	-4.31	
2587.041	-2.65	
2589.364	1.99	
2591.686	-0.33	
2594.006	-7.3	
2596.325	-3.98	
2598.643	-0.33	
2600.958	-2.98	
2603.273	-1.33	
2605.585	-2.98	
2607.897	-3.98	
2610.206	-1.66	
2612.515	-5.64	
2614.822	-2.32	
2617.127	-4.64	
2619.431	-6.63	
2621.733	-5.64	
2624.034	-0.66	
2626.333	-2.65	
2628.631	-3.98	
2630.927	0.33	
2633.222	-4.97	
2635.515	-5.64	
2637.807	-4.31	
2640.098	-0.33	
2642.387	-0.66	
2644.674	-0.33	
2646.96	-6.63	
2649.245	-2.65	
2651.528	-0.66	
2653.809	-5.97	
2656.089	-1.33	
2658.368	-0.66	
2660.645	-2.65	
2662.921	-4.97	
2665.195	-7.96	
2667.468	-0.33	
2669.739	-1.66	
2672.009	-0.66	
2674.277	-2.32	
2676.544	0	
2678.809	2.32	
2681.073	-0.66	
2683.336	0.66	
2685.597	0.33	
2687.856	0	
2690.115	2.32	
2692.371	2.65	
2694.626	3.32	
2696.88	5.64	
2699.133	6.63	
2701.383	2.98	
2703.633	5.97	
2705.881	5.31	
2708.127	4.31	
2710.373	5.31	
2712.616	6.3	
2714.859	5.64	
2717.099	4.97	
2719.339	3.65	
2721.577	6.96	
2723.813	9.95	
2726.048	7.3	
2728.282	9.95	
2730.514	3.65	
2732.745	7.63	
2734.974	5.31	
2737.202	9.29	
2739.428	13.27	
2741.653	8.29	
2743.877	4.64	
2746.099	9.95	
2748.32	7.3	
2750.539	9.95	
2752.757	12.27	
2754.974	11.61	
2757.189	10.61	
2759.403	10.28	
2761.615	8.95	
2763.826	4.64	
2766.035	8.95	
2768.243	12.93	
2770.45	6.3	
2772.655	13.93	
2774.859	14.92	
2777.062	10.28	
2779.263	13.27	
2781.462	12.27	
2783.66	11.28	
2785.857	15.26	
2788.053	14.59	
2790.247	13.93	
2792.439	16.25	
2794.631	15.92	
2796.82	13.27	
2799.009	16.91	
2801.196	15.59	
2803.382	19.24	
2805.566	19.24	
2807.749	25.54	
2809.93	21.23	
2812.11	25.21	
2814.289	25.54	
2816.466	30.51	
2818.642	29.52	
2820.817	33.83	
2822.99	29.19	
2825.162	33.5	
2827.332	32.5	
2829.502	34.49	
2831.669	36.48	
2833.836	40.46	
2836	42.45	
2838.164	38.47	
2840.326	42.78	
2842.487	42.45	
2844.647	48.09	
2846.805	48.75	
2848.961	50.74	
2851.117	49.75	
2853.271	53.4	
2855.423	53.73	
2857.575	62.35	
2859.725	60.69	
2861.873	67.99	
2864.02	71.64	
2866.166	70.31	
2868.311	77.94	
2870.454	82.58	
2872.596	84.9	
2874.736	87.23	
2876.875	85.57	
2879.013	78.6	
2881.149	88.55	
2883.284	79.27	
2885.418	82.91	
2887.551	86.23	
2889.682	78.93	
2891.811	75.95	
2893.94	71.31	
2896.067	72.63	
2898.192	74.62	
2900.317	73.3	
2902.439	68.32	
2904.561	70.97	
2906.681	69.32	
2908.8	62.02	
2910.918	66	
2913.034	68.98	
2915.149	69.32	
2917.263	69.32	
2919.375	67.66	
2921.486	67.99	
2923.596	71.97	
2925.704	68.32	
2927.811	65	
2929.917	69.32	
2932.021	64.01	
2934.124	66	
2936.226	62.35	
2938.327	66.66	
2940.426	66.33	
2942.524	63.01	
2944.62	65	
2946.715	59.03	
2948.809	59.7	
2950.902	51.41	
2952.993	54.06	
2955.083	52.4	
2957.171	50.74	
2959.259	46.1	
2961.345	45.11	
2963.429	38.8	
2965.513	41.79	
2967.595	36.48	
2969.676	34.49	
2971.755	32.5	
2973.833	29.52	
2975.91	28.19	
2977.986	21.23	
2980.06	19.9	
2982.133	18.57	
2984.205	19.57	
2986.275	16.91	
2988.345	11.94	
2990.412	14.92	
2992.479	11.94	
2994.544	7.63	
2996.608	9.29	
2998.671	8.95	
3000.732	8.62	
3002.792	4.97	
3004.851	6.3	
3006.909	4.31	
3008.965	1.66	
3011.02	3.32	
3013.074	4.31	
3015.126	8.62	
3017.177	1.99	
3019.227	5.31	
3021.276	0.66	
3023.323	1.66	
3025.369	2.32	
3027.414	3.98	
3029.458	4.64	
3031.5	0.99	
3033.541	1.66	
3035.581	2.32	
3037.619	2.98	
3039.656	2.98	
3041.692	3.65	
3043.727	-0.66	
3045.76	0.66	
3047.793	0.33	
3049.824	-4.64	
3051.853	-0.99	
3053.882	0.99	
3055.909	-0.66	
