RamanShift:204		
0.351	-395.36	
4.587	-55.22	
8.82	-15.42	
13.049	-8.46	
17.275	-9.78	
21.497	-2.16	
25.716	-3.81	
29.931	-3.81	
34.142	-1.16	
38.351	-4.81	
42.555	-2.16	
46.756	0.5	
50.954	-3.48	
55.148	-0.83	
59.339	1.82	
63.527	-1.82	
67.71	1.82	
71.891	-4.15	
76.068	3.15	
80.241	1.82	
84.411	0.5	
88.578	3.48	
92.741	2.49	
96.901	1.82	
101.057	0.5	
105.21	2.49	
109.359	8.13	
113.505	4.15	
117.648	7.13	
121.787	6.47	
125.923	8.79	
130.055	12.44	
134.184	15.09	
138.31	16.09	
142.432	18.41	
146.551	19.4	
150.667	20.73	
154.779	25.04	
158.887	25.04	
162.993	28.36	
167.095	33	
171.193	39.3	
175.289	36.32	
179.381	39.96	
183.469	42.95	
187.554	47.59	
191.636	52.24	
195.715	46.93	
199.79	44.28	
203.862	53.56	
207.931	50.91	
211.996	52.24	
216.058	59.86	
220.116	51.24	
224.172	57.21	
228.224	60.2	
232.272	61.52	
236.318	64.51	
240.36	67.16	
244.399	67.49	
248.434	69.48	
252.466	63.51	
256.495	62.19	
260.521	73.46	
264.544	67.49	
268.563	71.47	
272.579	68.82	
276.591	66.17	
280.601	70.81	
284.607	67.82	
288.61	69.81	
292.609	70.81	
296.606	72.14	
300.599	75.12	
304.589	67.49	
308.575	68.49	
312.559	67.82	
316.539	64.51	
320.516	66.17	
324.49	65.17	
328.461	57.21	
332.428	65.5	
336.392	59.86	
340.353	58.87	
344.311	61.85	
348.266	55.22	
352.217	56.22	
356.165	51.57	
360.11	45.93	
364.052	42.62	
367.991	40.63	
371.926	41.29	
375.859	37.97	
379.788	37.64	
383.714	41.95	
387.637	40.96	
391.557	44.61	
395.473	47.26	
399.387	47.92	
403.297	47.92	
407.204	61.19	
411.108	56.22	
415.009	48.26	
418.907	38.64	
422.802	37.64	
426.693	46.27	
430.581	37.64	
434.467	42.29	
438.349	38.64	
442.228	36.65	
446.104	33.66	
449.977	30.68	
453.847	33.33	
457.713	38.64	
461.577	44.61	
465.438	58.21	
469.295	66.17	
473.149	74.46	
477.001	73.13	
480.849	70.48	
484.694	64.18	
488.536	53.89	
492.375	44.94	
496.211	40.3	
500.044	39.96	
503.874	38.31	
507.701	41.95	
511.525	44.28	
515.346	44.94	
519.163	49.58	
522.978	49.91	
526.79	47.92	
530.598	45.93	
534.404	46.27	
538.207	40.63	
542.006	44.28	
545.803	44.28	
549.596	40.63	
553.387	39.63	
557.175	35.98	
560.959	35.65	
564.741	31.01	
568.519	30.01	
572.295	30.68	
576.068	29.02	
579.837	25.7	
583.604	24.38	
587.368	21.06	
591.128	19.07	
594.886	22.39	
598.641	18.41	
602.393	22.72	
606.142	19.73	
609.887	14.76	
613.63	14.43	
617.37	16.42	
621.108	15.09	
624.842	11.44	
628.573	15.09	
632.301	16.75	
636.027	18.74	
639.749	20.4	
643.468	16.09	
647.185	17.74	
650.899	20.4	
654.609	18.41	
658.317	24.38	
662.022	20.07	
665.724	23.38	
669.423	16.42	
673.119	22.72	
676.813	18.41	
680.503	10.12	
684.191	9.78	
687.875	14.1	
691.557	9.12	
695.236	10.45	
698.912	15.42	
702.585	13.1	
706.256	14.76	
709.923	9.78	
713.588	12.77	
717.249	11.44	
720.908	15.42	
724.564	11.77	
728.217	12.11	
731.868	10.78	
735.515	9.78	
739.16	15.09	
742.801	15.75	
746.44	16.42	
750.076	10.45	
753.71	16.42	
757.34	20.4	
760.968	19.73	
764.593	19.73	
768.215	22.39	
771.834	28.69	
775.45	36.32	
779.064	37.97	
782.675	45.6	
786.283	54.23	
789.888	69.81	
793.49	78.44	
797.09	92.04	
800.686	97.67	
804.281	105.63	
807.872	110.61	
811.46	124.54	
815.046	127.86	
818.629	127.86	
822.209	123.88	
825.786	127.52	
829.361	126.2	
832.933	141.45	
836.502	151.07	
840.068	157.71	
843.632	157.04	
847.193	156.71	
850.751	167.33	
854.306	171.64	
857.859	177.61	
861.409	182.25	
864.956	170.31	
868.5	154.06	
872.042	138.47	
875.581	130.18	
879.117	140.13	
882.651	133.49	
886.182	118.24	
889.71	101.32	
893.235	78.11	
896.758	73.46	
900.278	63.18	
903.795	61.52	
907.31	58.54	
910.822	54.89	
914.331	52.24	
917.838	53.56	
921.341	53.89	
924.843	50.25	
928.341	44.61	
931.837	36.32	
935.33	32.34	
938.821	32.67	
942.308	24.71	
945.793	27.36	
949.276	23.05	
952.756	22.39	
956.233	28.03	
959.707	28.36	
963.179	35.32	
966.649	29.02	
970.115	29.02	
973.579	31.34	
977.04	33.33	
980.499	33	
983.955	30.35	
987.408	34.33	
990.859	33	
994.307	38.64	
997.753	40.63	
1001.196	35.65	
1004.636	46.27	
1008.074	55.22	
1011.509	66.5	
1014.941	72.14	
1018.371	82.42	
1021.798	95.35	
1025.223	105.97	
1028.645	112.6	
1032.064	122.55	
1035.481	126.86	
1038.896	138.47	
1042.307	143.11	
1045.716	144.77	
1049.123	151.07	
1052.527	146.76	
1055.928	151.74	
1059.327	152.4	
1062.723	161.36	
1066.117	147.76	
1069.508	140.79	
1072.897	142.45	
1076.283	137.14	
1079.666	139.8	
1083.047	134.16	
1086.425	130.84	
1089.801	128.52	
1093.174	114.59	
1096.545	107.96	
1099.913	100.33	
1103.279	105.63	
1106.642	101.32	
1110.002	104.64	
1113.36	104.64	
1116.716	97.67	
1120.069	97.01	
1123.419	91.37	
1126.767	92.37	
1130.113	88.39	
1133.456	79.43	
1136.796	68.16	
1140.134	65.5	
1143.47	59.2	
1146.802	50.58	
1150.133	40.96	
1153.461	34.66	
1156.786	32.67	
1160.109	27.69	
1163.43	27.03	
1166.748	28.69	
1170.063	24.05	
1173.376	22.39	
1176.687	27.36	
1179.995	22.06	
1183.3	28.69	
1186.603	26.7	
1189.904	32.34	
1193.202	36.32	
1196.498	40.63	
1199.791	42.62	
1203.082	43.61	
1206.37	47.92	
1209.656	44.94	
1212.94	50.25	
1216.221	53.89	
1219.499	60.86	
1222.775	65.17	
1226.049	69.15	
1229.32	79.1	
1232.589	85.07	
1235.856	82.75	
1239.12	96.02	
1242.381	97.68	
1245.64	92.37	
1248.897	95.69	
1252.151	98.01	
1255.403	94.36	
1258.652	99.33	
1261.9	104.64	
1265.144	113.26	
1268.386	122.55	
1271.626	129.18	
1274.864	137.81	
1278.099	142.12	
1281.331	132.5	
1284.562	135.49	
1287.789	115.25	
1291.015	121.56	
1294.238	107.96	
1297.459	97.34	
1300.677	90.38	
1303.893	77.78	
1307.106	66.83	
1310.318	64.84	
1313.526	56.55	
1316.733	55.89	
1319.937	43.95	
1323.139	44.61	
1326.338	45.94	
1329.535	42.62	
1332.73	46.6	
1335.922	45.6	
1339.112	41.62	
1342.3	31.01	
1345.485	37.64	
1348.668	39.3	
1351.848	36.98	
1355.027	40.3	
1358.203	32.67	
1361.376	39.63	
1364.547	36.32	
1367.716	42.29	
1370.883	36.98	
1374.047	37.98	
1377.209	38.97	
1380.369	41.96	
1383.526	39.63	
1386.681	46.93	
1389.834	39.3	
1392.984	40.3	
1396.132	44.94	
1399.278	37.64	
1402.421	41.62	
1405.562	44.61	
1408.701	48.26	
1411.838	40.63	
1414.972	47.26	
1418.104	47.93	
1421.234	46.93	
1424.361	52.24	
1427.486	52.24	
1430.609	65.5	
1433.73	74.13	
1436.848	89.38	
1439.964	110.28	
1443.078	116.58	
1446.189	143.12	
1449.299	157.05	
1452.405	170.64	
1455.51	174.96	
1458.613	173.63	
1461.713	174.62	
1464.811	161.03	
1467.906	163.02	
1471	149.42	
1474.091	125.87	
1477.18	100	
1480.267	77.11	
1483.351	59.2	
1486.433	44.94	
1489.513	36.32	
1492.591	28.03	
1495.666	22.39	
1498.74	16.42	
1501.811	17.41	
1504.879	8.13	
1507.946	11.77	
1511.01	10.45	
1514.073	6.14	
1517.132	5.47	
1520.19	8.79	
1523.246	7.79	
1526.299	6.8	
1529.35	5.14	
1532.399	9.78	
1535.446	6.8	
1538.49	6.14	
1541.532	1.49	
1544.572	2.82	
1547.61	3.15	
1550.646	2.49	
1553.68	-0.5	
1556.711	5.14	
1559.74	-0.17	
1562.767	1.49	
1565.792	1.16	
1568.814	6.8	
1571.835	2.82	
1574.853	0.83	
1577.869	3.15	
1580.883	-0.5	
1583.895	0.5	
1586.904	3.48	
1589.912	0.5	
1592.917	3.81	
1595.92	-2.49	
1598.921	4.81	
1601.92	-1.16	
1604.917	-1.82	
1607.911	2.49	
1610.903	1.49	
1613.894	1.49	
1616.882	-0.5	
1619.868	0.83	
1622.851	-6.14	
1625.833	1.16	
1628.812	-2.49	
1631.79	2.16	
1634.765	-3.15	
1637.738	-1.16	
1640.709	-4.81	
1643.678	-0.83	
1646.645	-1.49	
1649.609	-3.48	
1652.572	4.48	
1655.532	-4.48	
1658.49	-2.16	
1661.447	-7.46	
1664.401	-4.48	
1667.353	-0.17	
1670.302	-0.17	
1673.25	0.5	
1676.196	-2.82	
1679.139	-0.17	
1682.081	-4.81	
1685.02	-1.82	
1687.957	-3.81	
1690.893	-6.8	
1693.826	-5.8	
1696.757	-5.8	
1699.686	-0.5	
1702.612	-3.48	
1705.537	-4.48	
1708.46	-2.16	
1711.38	-2.16	
1714.299	-3.81	
1717.215	-3.15	
1720.13	-4.81	
1723.042	-1.82	
1725.952	-5.14	
1728.86	-4.48	
1731.767	-1.82	
1734.671	0.5	
1737.573	-3.15	
1740.473	-4.81	
1743.37	-3.48	
1746.266	-5.8	
1749.16	-5.14	
1752.052	-5.47	
1754.942	-2.16	
1757.829	-1.16	
1760.715	-5.14	
1763.598	-7.13	
1766.48	-6.14	
1769.36	-1.82	
1772.237	-4.15	
1775.112	-6.8	
1777.986	-4.81	
1780.857	-2.16	
1783.727	-0.83	
1786.594	-5.14	
1789.459	-3.48	
1792.323	-8.13	
1795.184	-4.81	
1798.043	-0.83	
1800.9	-5.8	
1803.756	-3.81	
1806.609	-3.15	
1809.46	-8.13	
1812.309	-5.8	
1815.157	-6.8	
1818.002	-7.46	
1820.845	-11.11	
1823.686	-5.47	
1826.526	-4.81	
1829.363	-5.14	
1832.198	-4.48	
1835.031	-10.12	
1837.863	-2.49	
1840.692	0.5	
1843.519	-4.15	
1846.345	-5.47	
1849.168	-5.14	
1851.989	-1.82	
1854.809	-3.15	
1857.626	-9.45	
1860.441	-7.46	
1863.255	-3.48	
1866.066	-6.47	
1868.876	-4.15	
1871.684	-6.14	
1874.489	-7.79	
1877.293	-11.11	
1880.095	-5.14	
1882.894	-3.15	
1885.692	-8.79	
1888.488	-6.14	
1891.282	-5.8	
1894.074	-7.13	
1896.864	-10.78	
1899.652	-4.81	
1902.438	-5.14	
1905.222	-1.82	
1908.004	-8.79	
1910.785	-9.12	
1913.563	-5.14	
1916.339	-8.13	
1919.114	-4.48	
1921.886	-5.8	
1924.657	-4.48	
1927.426	-7.13	
1930.193	-6.8	
1932.957	-7.46	
1935.72	-2.16	
1938.481	-6.14	
1941.24	-0.83	
1943.998	-4.48	
1946.753	-7.46	
1949.506	-5.14	
1952.258	-5.47	
1955.007	-8.13	
1957.755	-3.48	
1960.501	-2.16	
1963.245	-0.17	
1965.986	-2.16	
1968.726	-1.82	
1971.465	-5.8	
1974.201	-4.81	
1976.935	-6.8	
1979.668	-5.14	
1982.398	-2.49	
1985.127	-3.15	
1987.854	-5.8	
1990.579	-3.48	
1993.302	-3.15	
1996.023	-4.48	
1998.742	-2.82	
2001.46	-7.13	
2004.175	-3.81	
2006.889	-2.82	
2009.6	-2.82	
2012.31	-3.48	
2015.018	-2.16	
2017.725	-0.83	
2020.429	-3.48	
2023.131	-1.82	
2025.832	-4.15	
2028.531	-0.5	
2031.228	-3.81	
2033.923	-3.48	
2036.616	-4.81	
2039.307	-2.49	
2041.997	-1.16	
2044.684	-1.49	
2047.37	-2.82	
2050.054	-2.16	
2052.736	3.15	
2055.416	-1.16	
2058.095	-3.15	
2060.771	0.5	
2063.446	1.49	
2066.119	-1.49	
2068.79	1.16	
2071.459	-3.15	
2074.127	0.83	
2076.792	0.5	
2079.456	-2.49	
2082.118	-2.49	
2084.778	-1.16	
2087.436	-3.15	
2090.093	-3.15	
2092.747	-3.48	
2095.4	-1.49	
2098.051	-6.47	
2100.7	-1.82	
2103.348	0.5	
2105.993	-0.5	
2108.637	1.16	
2111.279	0.5	
2113.919	5.8	
2116.558	3.81	
2119.194	-0.83	
2121.829	-2.49	
2124.462	-3.15	
2127.093	-1.16	
2129.723	-0.5	
2132.35	-2.16	
2134.976	-1.82	
2137.6	-4.81	
2140.223	2.49	
2142.843	-2.82	
2145.462	-4.48	
2148.079	0.17	
2150.694	1.16	
2153.307	0.5	
2155.919	1.49	
2158.528	-1.16	
2161.137	-1.49	
2163.743	2.82	
2166.347	-3.48	
2168.95	-2.82	
2171.551	2.16	
2174.15	-1.82	
2176.748	4.81	
2179.343	0.17	
2181.937	0.5	
2184.529	2.49	
2187.12	-2.49	
2189.708	0.5	
2192.295	-2.49	
2194.88	-3.48	
2197.464	-1.82	
2200.045	0.83	
2202.625	1.82	
2205.203	0.83	
2207.78	-0.5	
2210.355	-4.81	
2212.928	-0.83	
2215.499	4.81	
2218.068	2.49	
2220.636	-4.81	
2223.202	0.17	
2225.766	1.49	
2228.329	0.17	
2230.889	-0.5	
2233.449	4.15	
2236.006	-0.5	
2238.562	0.5	
2241.115	3.81	
2243.668	1.16	
2246.218	0.5	
2248.767	1.49	
2251.314	3.48	
2253.859	-2.82	
2256.403	0.17	
2258.945	2.16	
2261.485	3.81	
2264.023	1.82	
2266.56	-2.16	
2269.095	4.81	
2271.629	2.49	
2274.16	0.17	
2276.69	-1.16	
2279.219	1.16	
2281.745	-0.5	
2284.27	1.16	
2286.793	0.83	
2289.315	0.17	
2291.835	-1.82	
2294.353	2.16	
2296.869	2.49	
2299.384	0.83	
2301.897	-1.49	
2304.408	1.82	
2306.918	3.81	
2309.426	-1.16	
2311.932	1.49	
2314.437	4.81	
2316.94	0.17	
2319.441	-1.82	
2321.941	-1.49	
2324.439	2.82	
2326.935	-1.49	
2329.43	-1.16	
2331.923	0.5	
2334.414	0.5	
2336.904	-1.49	
2339.392	0.17	
2341.878	2.16	
2344.363	2.49	
2346.846	2.82	
2349.328	4.15	
2351.807	2.49	
2354.285	-1.49	
2356.762	3.15	
2359.237	-0.17	
2361.71	-0.17	
2364.181	-1.49	
2366.651	0.5	
2369.119	-0.83	
2371.586	0.17	
2374.051	0.17	
2376.514	-1.16	
2378.976	1.16	
2381.436	3.48	
2383.894	-1.49	
2386.351	2.16	
2388.806	1.49	
2391.259	1.49	
2393.711	1.49	
2396.161	-0.5	
2398.61	2.16	
2401.057	0.5	
2403.502	-0.17	
2405.946	-1.49	
2408.388	-1.49	
2410.829	-2.49	
2413.268	-2.49	
2415.705	-3.15	
2418.141	-1.49	
2420.575	-1.82	
2423.007	2.49	
2425.438	1.82	
2427.867	-4.48	
2430.295	0.5	
2432.721	-4.48	
2435.145	0.83	
2437.568	-0.17	
2439.989	-1.49	
2442.409	-2.49	
2444.827	-2.49	
2447.243	0.17	
2449.658	-1.82	
2452.071	-1.49	
2454.483	-3.48	
2456.893	-2.82	
2459.302	-0.5	
2461.709	0.17	
2464.114	-2.16	
2466.518	2.82	
2468.92	-0.83	
2471.32	0.17	
2473.719	3.15	
2476.117	0.83	
2478.512	0.83	
2480.907	-2.49	
2483.299	-1.16	
2485.691	-1.82	
2488.08	-0.5	
2490.468	-6.47	
2492.854	-0.5	
2495.239	2.82	
2497.623	-0.17	
2500.004	2.49	
2502.384	-1.82	
2504.763	1.49	
2507.14	2.16	
2509.515	-1.16	
2511.889	-2.16	
2514.262	1.16	
2516.633	-2.82	
2519.002	-0.5	
2521.369	-1.16	
2523.736	-2.16	
2526.1	-0.17	
2528.463	0.5	
2530.825	0.83	
2533.185	1.49	
2535.543	-2.82	
2537.9	0.83	
2540.255	-3.81	
2542.609	0.17	
2544.961	1.49	
2547.312	-1.82	
2549.661	3.81	
2552.009	2.16	
2554.355	1.16	
2556.7	-2.49	
2559.043	2.16	
2561.384	-0.17	
2563.724	-2.16	
2566.063	1.82	
2568.4	2.16	
2570.735	0.17	
2573.069	0.17	
2575.402	4.81	
2577.733	1.16	
2580.062	2.82	
2582.39	1.49	
2584.716	2.49	
2587.041	-2.16	
2589.364	1.49	
2591.686	-3.48	
2594.006	-2.49	
2596.325	2.16	
2598.643	2.49	
2600.958	1.82	
2603.273	-1.49	
2605.585	0.5	
2607.897	-0.83	
2610.206	-0.17	
2612.515	5.47	
2614.822	-0.17	
2617.127	1.82	
2619.431	-2.49	
2621.733	-0.17	
2624.034	3.81	
2626.333	2.49	
2628.631	1.16	
2630.927	1.16	
2633.222	1.49	
2635.515	0.17	
2637.807	3.81	
2640.098	1.49	
2642.387	-2.82	
2644.674	2.49	
2646.96	-1.16	
2649.245	1.16	
2651.528	2.16	
2653.809	-0.17	
2656.089	-1.16	
2658.368	1.82	
2660.645	3.81	
2662.921	2.49	
2665.195	2.82	
2667.468	1.16	
2669.739	5.14	
2672.009	3.15	
2674.277	4.48	
2676.544	6.8	
2678.809	2.16	
2681.073	4.15	
2683.336	8.46	
2685.597	7.46	
2687.856	6.8	
2690.115	4.81	
2692.371	11.77	
2694.626	9.45	
2696.88	13.1	
2699.133	8.79	
2701.383	14.1	
2703.633	12.77	
2705.881	12.44	
2708.127	14.1	
2710.373	12.77	
2712.616	16.42	
2714.859	10.78	
2717.099	14.43	
2719.339	10.78	
2721.577	14.43	
2723.813	15.42	
2726.048	13.1	
2728.282	12.44	
2730.514	15.75	
2732.745	18.74	
2734.974	13.76	
2737.202	13.76	
2739.428	17.74	
2741.653	14.43	
2743.877	20.07	
2746.099	13.43	
2748.32	20.07	
2750.539	17.74	
2752.757	18.41	
2754.974	19.07	
2757.189	20.07	
2759.403	20.73	
2761.615	20.73	
2763.826	22.06	
2766.035	20.4	
2768.243	18.74	
2770.45	23.38	
2772.655	22.39	
2774.859	23.71	
2777.062	24.04	
2779.263	18.41	
2781.462	27.69	
2783.66	22.72	
2785.857	24.71	
2788.053	26.7	
2790.247	30.68	
2792.439	31.67	
2794.631	28.69	
2796.82	30.68	
2799.009	32.67	
2801.196	35.65	
2803.382	38.64	
2805.566	37.97	
2807.749	37.31	
2809.93	39.3	
2812.11	43.61	
2814.289	40.3	
2816.466	43.94	
2818.642	48.26	
2820.817	44.94	
2822.99	50.91	
2825.162	53.23	
2827.332	52.9	
2829.502	55.55	
2831.669	59.86	
2833.836	60.53	
2836	64.51	
2838.164	65.17	
2840.326	71.47	
2842.487	72.47	
2844.647	74.13	
2846.805	80.43	
2848.961	77.77	
2851.117	86.07	
2853.271	92.04	
2855.423	85.4	
2857.575	93.36	
2859.725	101.99	
2861.873	110.61	
2864.02	105.63	
2866.166	113.26	
2868.311	114.26	
2870.454	117.91	
2872.596	111.6	
2874.736	123.54	
2876.875	116.58	
2879.013	121.22	
2881.149	122.22	
2883.284	121.55	
2885.418	118.57	
2887.551	125.87	
2889.682	127.52	
2891.811	114.92	
2893.94	118.24	
2896.067	117.24	
2898.192	112.27	
2900.317	109.28	
2902.439	107.96	
2904.561	113.26	
2906.681	99.33	
2908.8	112.27	
2910.918	109.61	
2913.034	109.95	
2915.149	108.62	
2917.263	103.64	
2919.375	108.62	
2921.486	109.28	
2923.596	109.28	
2925.704	102.98	
2927.811	101.99	
2929.917	100	
2932.021	101.32	
2934.124	103.98	
2936.226	101.32	
2938.327	101.65	
2940.426	104.31	
2942.524	94.03	
2944.62	89.71	
2946.715	92.7	
2948.809	85.73	
2950.902	85.07	
2952.993	82.42	
2955.083	77.77	
2957.171	74.46	
2959.259	69.15	
2961.345	69.48	
2963.429	64.51	
2965.513	61.19	
2967.595	58.21	
2969.676	52.24	
2971.755	42.62	
2973.833	44.61	
2975.91	41.62	
2977.986	37.31	
2980.06	35.65	
2982.133	32	
2984.205	29.02	
2986.275	23.71	
2988.345	22.72	
2990.412	24.38	
2992.479	19.73	
2994.544	19.07	
2996.608	14.1	
2998.671	13.1	
3000.732	11.77	
3002.792	10.78	
3004.851	10.78	
3006.909	9.78	
3008.965	11.44	
3011.02	9.78	
3013.074	8.79	
3015.126	4.81	
3017.177	5.14	
3019.227	6.14	
3021.276	8.79	
3023.323	4.15	
3025.369	5.47	
3027.414	3.81	
3029.458	3.81	
3031.5	6.14	
3033.541	2.82	
3035.581	3.81	
3037.619	2.49	
3039.656	7.13	
3041.692	2.82	
3043.727	1.82	
3045.76	4.48	
3047.793	5.14	
3049.824	2.16	
3051.853	2.16	
3053.882	1.16	
3055.909	2.16	
