RamanShift:204		
0.351	-309.72	
4.587	-56.51	
8.82	-22.35	
13.049	-11.4	
17.275	-14.05	
21.497	-5.76	
25.716	-3.44	
29.931	-7.09	
34.142	-1.45	
38.351	-2.45	
42.555	-2.11	
46.756	1.87	
50.954	-3.11	
55.148	-1.78	
59.339	0.87	
63.527	-2.45	
67.71	-3.11	
71.891	-4.77	
76.068	-2.45	
80.241	-2.45	
84.411	0.87	
88.578	3.52	
92.741	2.53	
96.901	4.19	
101.057	1.53	
105.21	0.21	
109.359	4.19	
113.505	0.21	
117.648	5.85	
121.787	3.52	
125.923	4.19	
130.055	9.49	
134.184	8.83	
138.31	7.17	
142.432	12.81	
146.551	11.82	
150.667	11.15	
154.779	16.46	
158.887	17.45	
162.993	19.77	
167.095	22.43	
171.193	23.75	
175.289	23.75	
179.381	26.41	
183.469	26.74	
187.554	27.4	
191.636	30.72	
195.715	27.73	
199.79	22.1	
203.862	25.41	
207.931	32.71	
211.996	27.4	
216.058	31.05	
220.116	30.06	
224.172	32.05	
228.224	29.39	
232.272	36.36	
236.318	36.03	
240.36	36.03	
244.399	39.34	
248.434	36.69	
252.466	38.02	
256.495	44.65	
260.521	47.63	
264.544	44.65	
268.563	49.62	
272.579	54.27	
276.591	57.58	
280.601	69.86	
284.607	82.13	
288.61	108.33	
292.609	150.78	
296.606	188.59	
300.599	199.54	
304.589	197.88	
308.575	164.05	
312.559	145.48	
316.539	145.48	
320.516	157.75	
324.49	195.56	
328.461	219.11	
332.428	213.47	
336.392	182.62	
340.353	143.82	
344.311	114.63	
348.266	94.4	
352.217	78.81	
356.165	67.2	
360.11	59.24	
364.052	64.88	
367.991	74.17	
371.926	87.1	
375.859	101.7	
379.788	101.36	
383.714	97.05	
387.637	75.49	
391.557	59.24	
395.473	41.66	
399.387	43.32	
403.297	35.69	
407.204	42.33	
411.108	36.03	
415.009	22.76	
418.907	21.77	
422.802	28.73	
426.693	26.41	
430.581	21.1	
434.467	23.09	
438.349	16.79	
442.228	16.79	
446.104	11.15	
449.977	16.46	
453.847	18.78	
457.713	20.44	
461.577	25.08	
465.438	27.07	
469.295	30.72	
473.149	32.71	
477.001	31.71	
480.849	34.37	
484.694	31.05	
488.536	24.09	
492.375	17.45	
496.211	14.47	
500.044	15.8	
503.874	14.47	
507.701	15.46	
511.525	13.47	
515.346	12.48	
519.163	13.47	
522.978	22.43	
526.79	17.45	
530.598	15.46	
534.404	18.78	
538.207	18.78	
542.006	19.44	
545.803	13.14	
549.596	14.8	
553.387	15.46	
557.175	14.14	
560.959	16.46	
564.741	17.12	
568.519	17.12	
572.295	18.12	
576.068	15.8	
579.837	16.13	
583.604	19.44	
587.368	18.78	
591.128	17.79	
594.886	15.13	
598.641	22.43	
602.393	26.08	
606.142	23.09	
609.887	22.1	
613.63	26.08	
617.37	32.38	
621.108	31.38	
624.842	36.36	
628.573	46.64	
632.301	49.96	
636.027	65.21	
639.749	79.14	
643.468	100.04	
647.185	126.9	
650.899	182.96	
654.609	290.42	
658.317	467.88	
662.022	684.17	
665.724	839.42	
669.423	818.52	
673.119	606.87	
676.813	376.33	
680.503	223.75	
684.191	174.66	
687.875	186.94	
691.557	211.48	
695.236	258.58	
698.912	281.13	
702.585	272.84	
706.256	212.81	
709.923	142.49	
713.588	96.39	
717.249	70.19	
720.908	53.6	
724.564	39.67	
728.217	33.7	
731.868	29.72	
735.515	25.08	
739.16	26.41	
742.801	20.11	
746.44	23.42	
750.076	18.12	
753.71	19.78	
757.34	17.12	
760.968	19.44	
764.593	13.47	
768.215	18.78	
771.834	14.8	
775.45	17.12	
779.064	15.13	
782.675	16.13	
786.283	15.46	
789.888	18.45	
793.49	22.76	
797.09	23.42	
800.686	20.44	
804.281	36.03	
807.872	34.37	
811.46	38.35	
815.046	38.68	
818.629	35.03	
822.209	36.36	
825.786	32.71	
829.361	40.67	
832.933	36.69	
836.502	48.63	
840.068	45.31	
843.632	39.34	
847.193	32.71	
850.751	35.03	
854.306	30.39	
857.859	27.4	
861.409	29.72	
864.956	27.73	
868.5	29.72	
872.042	31.38	
875.581	27.73	
879.117	29.72	
882.651	29.39	
886.182	26.41	
889.71	25.08	
893.235	21.1	
896.758	24.75	
900.278	25.08	
903.795	24.75	
907.31	22.76	
910.822	26.08	
914.331	21.77	
917.838	29.39	
921.341	25.74	
924.843	26.74	
928.341	29.72	
931.837	29.06	
935.33	35.36	
938.821	36.03	
942.308	50.29	
945.793	62.56	
949.276	63.89	
952.756	56.26	
956.233	45.98	
959.707	33.37	
963.179	34.37	
966.649	28.4	
970.115	22.43	
973.579	22.1	
977.04	22.43	
980.499	26.08	
983.955	23.42	
987.408	28.73	
990.859	34.37	
994.307	38.02	
997.753	46.97	
1001.196	56.26	
1004.636	71.85	
1008.074	85.11	
1011.509	102.69	
1014.941	114.96	
1018.371	123.25	
1021.798	121.6	
1025.223	125.24	
1028.645	115.63	
1032.064	111.31	
1035.481	110.98	
1038.896	108.33	
1042.307	108	
1045.716	100.37	
1049.123	99.71	
1052.527	91.41	
1055.928	80.8	
1059.327	76.82	
1062.723	65.21	
1066.117	57.25	
1069.508	50.95	
1072.897	52.28	
1076.283	45.31	
1079.666	45.98	
1083.047	40.67	
1086.425	39.34	
1089.801	38.02	
1093.174	37.02	
1096.545	35.36	
1099.913	30.39	
1103.279	37.02	
1106.642	35.69	
1110.002	39.34	
1113.36	39.67	
1116.716	36.36	
1120.069	30.06	
1123.419	29.06	
1126.767	26.74	
1130.113	31.38	
1133.456	18.78	
1136.796	20.77	
1140.134	22.76	
1143.47	22.76	
1146.802	16.46	
1150.133	15.46	
1153.461	15.13	
1156.786	16.13	
1160.109	11.48	
1163.43	13.81	
1166.748	15.46	
1170.063	11.48	
1173.376	12.15	
1176.687	12.48	
1179.995	13.81	
1183.3	14.14	
1186.603	11.15	
1189.904	16.79	
1193.202	16.79	
1196.498	22.1	
1199.791	21.1	
1203.082	13.81	
1206.37	21.43	
1209.656	17.45	
1212.94	21.1	
1216.221	18.45	
1219.499	25.75	
1222.775	26.74	
1226.049	27.4	
1229.32	28.73	
1232.589	31.38	
1235.856	24.42	
1239.12	29.39	
1242.381	34.04	
1245.64	31.38	
1248.897	30.39	
1252.151	32.71	
1255.403	31.72	
1258.652	28.73	
1261.9	33.37	
1265.144	34.04	
1268.386	34.37	
1271.626	41	
1274.864	41.33	
1278.099	40.67	
1281.331	37.02	
1284.562	42.66	
1287.789	42.33	
1291.015	34.7	
1294.238	38.02	
1297.459	38.35	
1300.677	41.33	
1303.893	44.98	
1307.106	40.01	
1310.318	45.31	
1313.526	35.36	
1316.733	38.35	
1319.937	32.71	
1323.139	31.38	
1326.338	38.35	
1329.535	35.03	
1332.73	35.36	
1335.922	31.05	
1339.112	37.35	
1342.3	28.07	
1345.485	34.37	
1348.668	36.69	
1351.848	31.05	
1355.027	37.02	
1358.203	34.7	
1361.376	39.34	
1364.547	38.68	
1367.716	42	
1370.883	32.71	
1374.047	44.98	
1377.209	43.66	
1380.369	46.64	
1383.526	43.99	
1386.681	56.26	
1389.834	46.64	
1392.984	51.95	
1396.132	63.22	
1399.278	68.2	
1402.421	87.1	
1405.562	101.37	
1408.701	127.24	
1411.838	131.55	
1414.972	132.54	
1418.104	127.57	
1421.234	106.01	
1424.361	95.4	
1427.486	74.17	
1430.609	70.19	
1433.73	65.21	
1436.848	61.9	
1439.964	60.9	
1443.078	59.91	
1446.189	58.25	
1449.299	62.56	
1452.405	63.89	
1455.51	63.89	
1458.613	64.55	
1461.713	59.58	
1464.811	49.96	
1467.906	52.94	
1471	52.61	
1474.091	47.64	
1477.18	35.03	
1480.267	32.71	
1483.351	24.42	
1486.433	28.73	
1489.513	22.43	
1492.591	17.79	
1495.666	17.79	
1498.74	20.77	
1501.811	20.11	
1504.879	16.46	
1507.946	14.8	
1511.01	12.81	
1514.073	12.81	
1517.132	13.14	
1520.19	9.83	
1523.246	14.14	
1526.299	15.8	
1529.35	12.48	
1532.399	12.15	
1535.446	11.15	
1538.49	13.14	
1541.532	10.82	
1544.572	12.81	
1547.61	6.18	
1550.646	11.15	
1553.68	8.83	
1556.711	9.49	
1559.74	7.17	
1562.767	13.14	
1565.792	5.18	
1568.814	8.17	
1571.835	8.17	
1574.853	4.52	
1577.869	8.5	
1580.883	8.17	
1583.895	8.17	
1586.904	13.47	
1589.912	8.17	
1592.917	11.15	
1595.92	10.16	
1598.921	11.15	
1601.92	5.51	
1604.917	3.19	
1607.911	7.84	
1610.903	10.82	
1613.894	6.84	
1616.882	8.5	
1619.868	14.8	
1622.851	0.21	
1625.833	7.17	
1628.812	8.17	
1631.79	6.84	
1634.765	6.51	
1637.738	9.16	
1640.709	4.19	
1643.678	10.16	
1646.645	7.84	
1649.609	4.52	
1652.572	7.5	
1655.532	8.17	
1658.49	3.19	
1661.447	7.84	
1664.401	1.87	
1667.353	5.85	
1670.302	8.17	
1673.25	7.17	
1676.196	4.19	
1679.139	7.5	
1682.081	6.18	
1685.02	8.17	
1687.957	8.17	
1690.893	3.86	
1693.826	10.16	
1696.757	7.17	
1699.686	5.18	
1702.612	5.85	
1705.537	0.87	
1708.46	4.85	
1711.38	3.52	
1714.299	5.51	
1717.215	5.18	
1720.13	4.19	
1723.042	7.17	
1725.952	5.85	
1728.86	2.86	
1731.767	7.17	
1734.671	8.83	
1737.573	5.18	
1740.473	8.83	
1743.37	8.5	
1746.266	4.85	
1749.16	4.85	
1752.052	3.52	
1754.942	11.82	
1757.829	6.51	
1760.715	6.18	
1763.598	2.53	
1766.48	6.18	
1769.36	3.86	
1772.237	5.51	
1775.112	2.86	
1777.986	8.17	
1780.857	4.85	
1783.727	5.85	
1786.594	4.19	
1789.459	4.19	
1792.323	5.18	
1795.184	10.16	
1798.043	4.52	
1800.9	2.53	
1803.756	5.85	
1806.609	6.84	
1809.46	3.86	
1812.309	4.19	
1815.157	5.18	
1818.002	6.84	
1820.845	6.18	
1823.686	5.51	
1826.526	7.17	
1829.363	3.52	
1832.198	7.17	
1835.031	2.86	
1837.863	3.86	
1840.692	5.51	
1843.519	7.5	
1846.345	4.52	
1849.168	8.5	
1851.989	6.84	
1854.809	7.17	
1857.626	2.86	
1860.441	2.2	
1863.255	7.5	
1866.066	8.83	
1868.876	4.19	
1871.684	3.19	
1874.489	3.86	
1877.293	4.19	
1880.095	1.2	
1882.894	6.51	
1885.692	2.2	
1888.488	3.19	
1891.282	1.2	
1894.074	3.86	
1896.864	0.87	
1899.652	4.52	
1902.438	4.85	
1905.222	6.84	
1908.004	5.18	
1910.785	0.87	
1913.563	9.83	
1916.339	1.87	
1919.114	6.84	
1921.886	3.52	
1924.657	3.19	
1927.426	2.86	
1930.193	3.52	
1932.957	3.52	
1935.72	5.51	
1938.481	2.53	
1941.24	5.51	
1943.998	2.86	
1946.753	3.86	
1949.506	6.18	
1952.258	0.87	
1955.007	0.21	
1957.755	2.86	
1960.501	4.52	
1963.245	3.19	
1965.986	3.19	
1968.726	6.51	
1971.465	-2.45	
1974.201	5.51	
1976.935	-0.79	
1979.668	0.54	
1982.398	0.87	
1985.127	2.2	
1987.854	2.2	
1990.579	0.54	
1993.302	0.54	
1996.023	1.2	
1998.742	1.2	
2001.46	-2.45	
2004.175	0.54	
2006.889	-1.78	
2009.6	0.87	
2012.31	-1.12	
2015.018	1.2	
2017.725	-1.12	
2020.429	3.19	
2023.131	5.18	
2025.832	0.21	
2028.531	-0.12	
2031.228	0.54	
2033.923	-0.12	
2036.616	-4.1	
2039.307	2.2	
2041.997	4.85	
2044.684	1.87	
2047.37	2.2	
2050.054	0.21	
2052.736	3.52	
2055.416	2.2	
2058.095	0.87	
2060.771	3.19	
2063.446	0.87	
2066.119	0.54	
2068.79	2.53	
2071.459	-0.79	
2074.127	1.2	
2076.792	1.87	
2079.456	1.53	
2082.118	-0.46	
2084.778	0.21	
2087.436	0.21	
2090.093	-0.79	
2092.747	-0.46	
2095.4	1.2	
2098.051	-2.45	
2100.7	-1.78	
2103.348	-2.11	
2105.993	3.52	
2108.637	-1.12	
2111.279	-1.45	
2113.919	3.19	
2116.558	0.21	
2119.194	0.87	
2121.829	1.87	
2124.462	-3.11	
2127.093	-2.45	
2129.723	0.87	
2132.35	-0.12	
2134.976	-3.77	
2137.6	-2.45	
2140.223	1.87	
2142.843	2.2	
2145.462	-0.79	
2148.079	2.86	
2150.694	1.2	
2153.307	2.86	
2155.919	0.87	
2158.528	0.21	
2161.137	-1.45	
2163.743	-0.12	
2166.347	-1.78	
2168.95	-6.43	
2171.551	1.87	
2174.15	-0.12	
2176.748	3.52	
2179.343	-1.12	
2181.937	0.54	
2184.529	1.87	
2187.12	1.53	
2189.708	2.53	
2192.295	-1.45	
2194.88	-2.11	
2197.464	-1.12	
2200.045	-1.78	
2202.625	-1.12	
2205.203	-0.12	
2207.78	-1.78	
2210.355	-3.77	
2212.928	-0.79	
2215.499	4.52	
2218.068	3.52	
2220.636	-5.1	
2223.202	-2.78	
2225.766	1.87	
2228.329	0.21	
2230.889	-1.12	
2233.449	5.18	
2236.006	2.86	
2238.562	3.52	
2241.115	3.19	
2243.668	-0.79	
2246.218	-0.12	
2248.767	2.53	
2251.314	-0.12	
2253.859	-1.78	
2256.403	2.2	
2258.945	0.54	
2261.485	2.2	
2264.023	1.2	
2266.56	-2.45	
2269.095	1.87	
2271.629	0.21	
2274.16	-0.46	
2276.69	-6.43	
2279.219	-1.45	
2281.745	-2.11	
2284.27	0.87	
2286.793	-2.78	
2289.315	-1.78	
2291.835	-1.78	
2294.353	1.2	
2296.869	-0.79	
2299.384	1.2	
2301.897	-1.45	
2304.408	-1.12	
2306.918	-0.12	
2309.426	0.87	
2311.932	-1.45	
2314.437	-0.12	
2316.94	-0.46	
2319.441	-0.46	
2321.941	0.87	
2324.439	4.19	
2326.935	-3.44	
2329.43	-0.79	
2331.923	3.19	
2334.414	-0.12	
2336.904	-2.11	
2339.392	1.87	
2341.878	3.86	
2344.363	1.2	
2346.846	2.2	
2349.328	2.2	
2351.807	-1.12	
2354.285	-1.45	
2356.762	-1.12	
2359.237	1.2	
2361.71	-0.79	
2364.181	-1.12	
2366.651	-0.46	
2369.119	0.21	
2371.586	-0.79	
2374.051	1.87	
2376.514	-4.44	
2378.976	-2.11	
2381.436	5.18	
2383.894	-0.12	
2386.351	1.53	
2388.806	1.2	
2391.259	0.21	
2393.711	1.53	
2396.161	0.54	
2398.61	1.2	
2401.057	-0.46	
2403.502	2.2	
2405.946	2.86	
2408.388	-0.79	
2410.829	3.19	
2413.268	1.2	
2415.705	-2.78	
2418.141	-3.11	
2420.575	-2.11	
2423.007	3.52	
2425.438	0.87	
2427.867	-3.44	
2430.295	-2.45	
2432.721	-1.12	
2435.145	1.2	
2437.568	2.86	
2439.989	-1.12	
2442.409	-0.46	
2444.827	-0.46	
2447.243	-2.45	
2449.658	-2.78	
2452.071	-2.45	
2454.483	-2.78	
2456.893	-3.44	
2459.302	0.54	
2461.709	0.87	
2464.114	-2.11	
2466.518	1.2	
2468.92	-3.44	
2471.32	-1.78	
2473.719	1.87	
2476.117	-1.45	
2478.512	-1.78	
2480.907	-3.11	
2483.299	-2.78	
2485.691	-4.1	
2488.08	-1.12	
2490.468	-7.09	
2492.854	0.21	
2495.239	-0.12	
2497.623	-1.78	
2500.004	-2.45	
2502.384	-4.77	
2504.763	-2.45	
2507.14	-0.12	
2509.515	-6.09	
2511.889	-1.45	
2514.262	-0.79	
2516.633	-5.1	
2519.002	-3.11	
2521.369	-2.45	
2523.736	-2.78	
2526.1	-2.45	
2528.463	-1.45	
2530.825	-5.1	
2533.185	0.54	
2535.543	-5.1	
2537.9	-2.78	
2540.255	-6.09	
2542.609	-1.12	
2544.961	1.53	
2547.312	-1.45	
2549.661	-0.46	
2552.009	-1.12	
2554.355	-1.12	
2556.7	-2.78	
2559.043	-5.76	
2561.384	-0.46	
2563.724	-3.44	
2566.063	-2.11	
2568.4	0.54	
2570.735	-3.11	
2573.069	-0.79	
2575.402	2.86	
2577.733	-2.45	
2580.062	-0.12	
2582.39	-1.45	
2584.716	-0.79	
2587.041	0.21	
2589.364	-2.45	
2591.686	-3.44	
2594.006	-4.77	
2596.325	0.87	
2598.643	-0.79	
2600.958	-2.45	
2603.273	-4.77	
2605.585	-2.78	
2607.897	-4.44	
2610.206	-2.11	
2612.515	1.2	
2614.822	-2.45	
2617.127	-0.46	
2619.431	-2.78	
2621.733	-2.78	
2624.034	0.87	
2626.333	-0.79	
2628.631	-4.77	
2630.927	-5.1	
2633.222	-2.78	
2635.515	-1.45	
2637.807	0.54	
2640.098	0.87	
2642.387	-6.09	
2644.674	0.87	
2646.96	-2.78	
2649.245	-0.79	
2651.528	-1.45	
2653.809	-3.11	
2656.089	-0.79	
2658.368	-1.45	
2660.645	0.54	
2662.921	1.53	
2665.195	-1.12	
2667.468	-0.12	
2669.739	0.21	
2672.009	-0.46	
2674.277	0.54	
2676.544	1.2	
2678.809	-3.44	
2681.073	-2.11	
2683.336	1.2	
2685.597	-3.11	
2687.856	1.2	
2690.115	0.87	
2692.371	-0.12	
2694.626	2.2	
2696.88	0.54	
2699.133	-2.45	
2701.383	2.53	
2703.633	2.2	
2705.881	-0.46	
2708.127	0.21	
2710.373	0.54	
2712.616	1.53	
2714.859	2.53	
2717.099	-0.12	
2719.339	-0.46	
2721.577	-1.12	
2723.813	0.54	
2726.048	-0.79	
2728.282	-1.78	
2730.514	2.53	
2732.745	0.54	
2734.974	-1.78	
2737.202	2.2	
2739.428	2.2	
2741.653	-0.12	
2743.877	4.19	
2746.099	1.87	
2748.32	5.85	
2750.539	3.52	
2752.757	4.19	
2754.974	1.2	
2757.189	4.19	
2759.403	2.86	
2761.615	4.52	
2763.826	6.84	
2766.035	1.87	
2768.243	-0.12	
2770.45	2.53	
2772.655	5.85	
2774.859	4.85	
2777.062	1.2	
2779.263	5.18	
2781.462	9.16	
2783.66	4.52	
2785.857	6.51	
2788.053	5.85	
2790.247	9.16	
2792.439	7.17	
2794.631	8.17	
2796.82	4.85	
2799.009	10.16	
2801.196	12.81	
2803.382	13.47	
2805.566	14.14	
2807.749	11.82	
2809.93	9.83	
2812.11	14.8	
2814.289	16.13	
2816.466	16.79	
2818.642	14.14	
2820.817	9.16	
2822.99	18.45	
2825.162	16.46	
2827.332	14.47	
2829.502	20.11	
2831.669	19.11	
2833.836	19.44	
2836	19.44	
2838.164	20.11	
2840.326	21.43	
2842.487	23.75	
2844.647	25.74	
2846.805	27.07	
2848.961	22.76	
2851.117	30.39	
2853.271	30.39	
2855.423	27.73	
2857.575	30.39	
2859.725	31.05	
2861.873	33.7	
2864.02	35.69	
2866.166	36.36	
2868.311	34.37	
2870.454	35.03	
2872.596	34.04	
2874.736	33.7	
2876.875	36.03	
2879.013	41.66	
2881.149	34.7	
2883.284	38.02	
2885.418	39.01	
2887.551	48.63	
2889.682	44.98	
2891.811	45.31	
2893.94	43.65	
2896.067	51.61	
2898.192	54.27	
2900.317	54.6	
2902.439	63.22	
2904.561	77.15	
2906.681	88.43	
2908.8	102.69	
2910.918	114.96	
2913.034	120.27	
2915.149	128.56	
2917.263	121.26	
2919.375	113.97	
2921.486	108	
2923.596	95.39	
2925.704	76.82	
2927.811	65.54	
2929.917	63.89	
2932.021	53.94	
2934.124	47.97	
2936.226	45.31	
2938.327	42	
2940.426	39.01	
2942.524	32.38	
2944.62	30.72	
2946.715	30.06	
2948.809	25.74	
2950.902	25.08	
2952.993	25.41	
2955.083	21.76	
2957.171	26.74	
2959.259	19.77	
2961.345	20.11	
2963.429	23.09	
2965.513	21.76	
2967.595	20.11	
2969.676	17.12	
2971.755	17.12	
2973.833	19.11	
2975.91	19.11	
2977.986	15.46	
2980.06	20.44	
2982.133	18.45	
2984.205	23.75	
2986.275	23.75	
2988.345	25.74	
2990.412	30.39	
2992.479	31.38	
2994.544	34.04	
2996.608	32.71	
2998.671	33.37	
3000.732	31.71	
3002.792	34.7	
3004.851	26.41	
3006.909	31.38	
3008.965	27.07	
3011.02	24.42	
3013.074	24.75	
3015.126	18.45	
3017.177	15.13	
3019.227	11.48	
3021.276	10.82	
3023.323	9.49	
3025.369	9.16	
3027.414	9.49	
3029.458	8.5	
3031.5	7.17	
3033.541	5.18	
3035.581	5.18	
3037.619	7.5	
3039.656	4.19	
3041.692	4.85	
3043.727	2.86	
3045.76	4.19	
3047.793	3.19	
3049.824	7.17	
3051.853	1.87	
3053.882	0.21	
3055.909	0.87	
