RamanShift:204		
0.351	-264.01	
4.587	-37.36	
8.82	-11.15	
13.049	-7.84	
17.275	-5.51	
21.497	-1.87	
25.716	0.12	
29.931	-3.52	
34.142	0.79	
38.351	-4.52	
42.555	0.12	
46.756	0.79	
50.954	-1.87	
55.148	-0.21	
59.339	-0.21	
63.527	-0.54	
67.71	-2.53	
71.891	-3.52	
76.068	0.79	
80.241	2.45	
84.411	2.45	
88.578	4.44	
92.741	1.45	
96.901	3.44	
101.057	2.45	
105.21	2.45	
109.359	4.44	
113.505	6.76	
117.648	7.75	
121.787	10.74	
125.923	10.74	
130.055	19.69	
134.184	15.38	
138.31	16.04	
142.432	19.36	
146.551	26.66	
150.667	25.33	
154.779	31.63	
158.887	36.27	
162.993	33.62	
167.095	39.59	
171.193	42.58	
175.289	43.9	
179.381	47.22	
183.469	53.52	
187.554	58.16	
191.636	53.19	
195.715	56.84	
199.79	56.51	
203.862	59.82	
207.931	62.48	
211.996	59.16	
216.058	65.46	
220.116	66.12	
224.172	69.77	
228.224	73.09	
232.272	75.74	
236.318	73.75	
240.36	79.72	
244.399	82.04	
248.434	89.01	
252.466	84.7	
256.495	93.32	
260.521	99.62	
264.544	100.29	
268.563	101.61	
272.579	100.95	
276.591	100.29	
280.601	108.58	
284.607	117.2	
288.61	134.45	
292.609	157.67	
296.606	185.19	
300.599	189.51	
304.589	181.55	
308.575	168.94	
312.559	146.06	
316.539	142.08	
320.516	138.43	
324.49	153.35	
328.461	163.97	
332.428	168.61	
336.392	156.67	
340.353	137.1	
344.311	122.84	
348.266	105.26	
352.217	95.64	
356.165	89.01	
360.11	77.07	
364.052	81.05	
367.991	68.78	
371.926	81.05	
375.859	88.68	
379.788	92.99	
383.714	90.67	
387.637	88.35	
391.557	75.08	
395.473	74.08	
399.387	71.76	
403.297	69.44	
407.204	71.43	
411.108	70.1	
415.009	57.5	
418.907	49.87	
422.802	52.86	
426.693	52.86	
430.581	50.54	
434.467	43.24	
438.349	44.57	
442.228	44.57	
446.104	36.94	
449.977	37.93	
453.847	41.58	
457.713	45.56	
461.577	44.9	
465.438	54.85	
469.295	59.82	
473.149	65.46	
477.001	65.46	
480.849	67.78	
484.694	70.1	
488.536	54.52	
492.375	50.87	
496.211	41.58	
500.044	43.9	
503.874	44.57	
507.701	38.27	
511.525	45.56	
515.346	36.61	
519.163	41.25	
522.978	45.56	
526.79	52.86	
530.598	48.88	
534.404	48.21	
538.207	44.57	
542.006	48.21	
545.803	48.55	
549.596	44.9	
553.387	40.59	
557.175	36.94	
560.959	37.6	
564.741	34.29	
568.519	36.28	
572.295	32.63	
576.068	30.31	
579.837	33.62	
583.604	24.34	
587.368	24.67	
591.128	29.97	
594.886	28.98	
598.641	25.66	
602.393	28.98	
606.142	27.32	
609.887	30.97	
613.63	31.63	
617.37	35.94	
621.108	43.24	
624.842	52.53	
628.573	69.44	
632.301	69.44	
636.027	71.1	
639.749	66.79	
643.468	68.78	
647.185	79.06	
650.899	105.26	
654.609	153.02	
658.317	247.88	
662.022	373.59	
665.724	498.65	
669.423	518.88	
673.119	425.67	
676.813	277.73	
680.503	170.93	
684.191	112.89	
687.875	110.24	
691.557	112.56	
695.236	144.07	
698.912	165.63	
702.585	166.29	
706.256	148.05	
709.923	114.88	
713.588	76.07	
717.249	57.83	
720.908	42.58	
724.564	35.28	
728.217	30.97	
731.868	28.98	
735.515	25.66	
739.16	28.98	
742.801	27.32	
746.44	22.35	
750.076	24.67	
753.71	25.66	
757.34	33.62	
760.968	26.99	
764.593	30.64	
768.215	32.96	
771.834	36.94	
775.45	44.57	
779.064	53.52	
782.675	57.83	
786.283	64.13	
789.888	79.06	
793.49	91	
797.09	99.29	
800.686	105.59	
804.281	118.2	
807.872	131.13	
811.46	132.79	
815.046	137.1	
818.629	139.09	
822.209	132.13	
825.786	126.82	
829.361	139.42	
832.933	139.76	
836.502	148.05	
840.068	142.08	
843.632	132.46	
847.193	125.16	
850.751	107.58	
854.306	104.6	
857.859	100.29	
861.409	105.92	
864.956	112.56	
868.5	113.22	
872.042	106.92	
875.581	110.57	
879.117	112.56	
882.651	111.56	
886.182	104.93	
889.71	91.33	
893.235	78.73	
896.758	73.42	
900.278	68.78	
903.795	64.47	
907.31	63.47	
910.822	66.79	
914.331	66.46	
917.838	62.14	
921.341	66.12	
924.843	58.83	
928.341	54.85	
931.837	58.5	
935.33	52.19	
938.821	59.49	
942.308	54.52	
945.793	66.46	
949.276	65.79	
952.756	61.15	
956.233	55.84	
959.707	42.24	
963.179	50.54	
966.649	42.25	
970.115	44.9	
973.579	49.54	
977.04	46.22	
980.499	45.56	
983.955	47.22	
987.408	52.53	
990.859	58.16	
994.307	62.48	
997.753	73.75	
1001.196	84.7	
1004.636	94.65	
1008.074	107.25	
1011.509	115.54	
1014.941	126.82	
1018.371	129.47	
1021.798	140.09	
1025.223	146.72	
1028.645	150.7	
1032.064	152.36	
1035.481	153.02	
1038.896	155.01	
1042.307	162.64	
1045.716	155.34	
1049.123	161.65	
1052.527	158	
1055.928	160.98	
1059.327	150.7	
1062.723	141.41	
1066.117	138.43	
1069.508	129.47	
1072.897	133.45	
1076.283	132.13	
1079.666	122.84	
1083.047	118.2	
1086.425	122.84	
1089.801	106.26	
1093.174	106.59	
1096.545	105.26	
1099.913	102.94	
1103.279	109.57	
1106.642	106.92	
1110.002	106.92	
1113.36	113.55	
1116.716	105.26	
1120.069	109.57	
1123.419	95.64	
1126.767	96.97	
1130.113	94.65	
1133.456	87.35	
1136.796	79.06	
1140.134	71.76	
1143.47	63.47	
1146.802	52.2	
1150.133	45.89	
1153.461	41.25	
1156.786	30.97	
1160.109	33.62	
1163.43	30.64	
1166.748	34.29	
1170.063	25.99	
1173.376	27.32	
1176.687	26.99	
1179.995	27.98	
1183.3	31.3	
1186.603	30.64	
1189.904	34.95	
1193.202	41.25	
1196.498	42.25	
1199.791	45.56	
1203.082	38.93	
1206.37	48.88	
1209.656	45.89	
1212.94	48.22	
1216.221	58.83	
1219.499	65.13	
1222.775	69.44	
1226.049	74.09	
1229.32	83.04	
1232.589	92.99	
1235.856	87.02	
1239.12	98.63	
1242.381	93.32	
1245.64	95.64	
1248.897	94.32	
1252.151	92.99	
1255.403	98.63	
1258.652	92	
1261.9	96.97	
1265.144	109.91	
1268.386	121.51	
1271.626	130.47	
1274.864	139.42	
1278.099	135.11	
1281.331	128.81	
1284.562	129.14	
1287.789	120.85	
1291.015	117.2	
1294.238	103.6	
1297.459	102.94	
1300.677	91.33	
1303.893	88.68	
1307.106	76.74	
1310.318	75.74	
1313.526	65.13	
1316.733	67.45	
1319.937	54.19	
1323.139	50.87	
1326.338	55.51	
1329.535	56.51	
1332.73	57.83	
1335.922	42.58	
1339.112	53.52	
1342.3	43.9	
1345.485	50.87	
1348.668	48.55	
1351.848	45.56	
1355.027	51.86	
1358.203	46.89	
1361.376	51.86	
1364.547	48.22	
1367.716	59.16	
1370.883	55.18	
1374.047	59.16	
1377.209	61.48	
1380.369	55.18	
1383.526	60.82	
1386.681	69.11	
1389.834	61.81	
1392.984	64.8	
1396.132	73.09	
1399.278	72.1	
1402.421	84.04	
1405.562	93.65	
1408.701	118.86	
1411.838	122.51	
1414.972	124.5	
1418.104	117.54	
1421.234	109.91	
1424.361	98.3	
1427.486	91	
1430.609	101.28	
1433.73	103.6	
1436.848	112.56	
1439.964	121.51	
1443.078	131.47	
1446.189	140.75	
1449.299	155.01	
1452.405	158.66	
1455.51	166.29	
1458.613	168.94	
1461.713	159.99	
1464.811	162.31	
1467.906	155.68	
1471	136.44	
1474.091	127.15	
1477.18	106.92	
1480.267	84.7	
1483.351	63.47	
1486.433	50.87	
1489.513	42.91	
1492.591	35.28	
1495.666	25.66	
1498.74	27.98	
1501.811	17.04	
1504.879	18.03	
1507.946	18.03	
1511.01	15.05	
1514.073	15.05	
1517.132	16.04	
1520.19	13.06	
1523.246	11.73	
1526.299	13.39	
1529.35	11.07	
1532.399	13.06	
1535.446	10.74	
1538.49	13.72	
1541.532	10.74	
1544.572	9.74	
1547.61	13.72	
1550.646	8.42	
1553.68	10.07	
1556.711	9.08	
1559.74	7.42	
1562.767	10.07	
1565.792	14.72	
1568.814	5.43	
1571.835	9.41	
1574.853	5.76	
1577.869	9.08	
1580.883	5.43	
1583.895	5.43	
1586.904	7.42	
1589.912	8.75	
1592.917	10.74	
1595.92	3.77	
1598.921	11.07	
1601.92	1.12	
1604.917	2.78	
1607.911	9.41	
1610.903	8.08	
1613.894	6.43	
1616.882	5.1	
1619.868	8.42	
1622.851	2.11	
1625.833	4.44	
1628.812	4.44	
1631.79	9.41	
1634.765	2.45	
1637.738	8.42	
1640.709	-0.21	
1643.678	4.1	
1646.645	6.76	
1649.609	2.45	
1652.572	6.43	
1655.532	5.1	
1658.49	1.78	
1661.447	7.42	
1664.401	0.46	
1667.353	1.12	
1670.302	7.42	
1673.25	3.11	
1676.196	3.44	
1679.139	1.12	
1682.081	-1.53	
1685.02	4.44	
1687.957	4.1	
1690.893	-0.54	
1693.826	2.78	
1696.757	1.12	
1699.686	-1.2	
1702.612	2.78	
1705.537	-2.53	
1708.46	5.1	
1711.38	3.44	
1714.299	1.12	
1717.215	1.78	
1720.13	5.1	
1723.042	4.1	
1725.952	-1.2	
1728.86	2.45	
1731.767	2.11	
1734.671	6.43	
1737.573	2.11	
1740.473	2.78	
1743.37	1.78	
1746.266	-3.52	
1749.16	-2.2	
1752.052	-3.52	
1754.942	4.77	
1757.829	3.11	
1760.715	1.78	
1763.598	-1.53	
1766.48	-0.87	
1769.36	5.1	
1772.237	3.44	
1775.112	-0.21	
1777.986	-0.87	
1780.857	2.11	
1783.727	2.45	
1786.594	2.11	
1789.459	-2.2	
1792.323	0.12	
1795.184	-0.87	
1798.043	0.79	
1800.9	-1.87	
1803.756	1.78	
1806.609	1.45	
1809.46	-1.53	
1812.309	-4.19	
1815.157	-0.87	
1818.002	0.12	
1820.845	-2.2	
1823.686	3.77	
1826.526	-0.87	
1829.363	-2.53	
1832.198	3.11	
1835.031	-2.53	
1837.863	3.44	
1840.692	-2.2	
1843.519	-3.52	
1846.345	-1.2	
1849.168	1.45	
1851.989	5.43	
1854.809	0.79	
1857.626	-2.53	
1860.441	-4.85	
1863.255	0.12	
1866.066	-0.87	
1868.876	-1.2	
1871.684	-0.87	
1874.489	-1.87	
1877.293	-2.2	
1880.095	-2.2	
1882.894	2.78	
1885.692	-0.87	
1888.488	3.11	
1891.282	-3.19	
1894.074	-2.86	
1896.864	-3.86	
1899.652	-1.53	
1902.438	-0.87	
1905.222	4.1	
1908.004	-4.85	
1910.785	-2.53	
1913.563	3.44	
1916.339	-1.87	
1919.114	-0.54	
1921.886	2.45	
1924.657	-2.2	
1927.426	-2.2	
1930.193	-2.2	
1932.957	-4.19	
1935.72	0.79	
1938.481	-3.19	
1941.24	-1.87	
1943.998	-0.21	
1946.753	-4.85	
1949.506	-1.53	
1952.258	-4.19	
1955.007	-0.87	
1957.755	0.46	
1960.501	0.46	
1963.245	-2.2	
1965.986	-0.54	
1968.726	-1.87	
1971.465	-2.53	
1974.201	-0.21	
1976.935	-1.87	
1979.668	-1.87	
1982.398	0.12	
1985.127	-2.2	
1987.854	-4.52	
1990.579	-0.54	
1993.302	-1.87	
1996.023	-0.21	
1998.742	-1.2	
2001.46	-0.21	
2004.175	0.12	
2006.889	-0.87	
2009.6	-3.52	
2012.31	0.12	
2015.018	1.12	
2017.725	-0.21	
2020.429	-0.54	
2023.131	-0.87	
2025.832	0.12	
2028.531	0.46	
2031.228	-4.52	
2033.923	-0.54	
2036.616	-1.87	
2039.307	-1.2	
2041.997	0.46	
2044.684	-2.2	
2047.37	-0.54	
2050.054	-1.87	
2052.736	-0.21	
2055.416	1.45	
2058.095	-0.54	
2060.771	0.79	
2063.446	1.45	
2066.119	-2.53	
2068.79	0.79	
2071.459	-0.54	
2074.127	2.11	
2076.792	-2.2	
2079.456	0.46	
2082.118	-3.19	
2084.778	0.12	
2087.436	-0.21	
2090.093	-2.2	
2092.747	0.79	
2095.4	1.78	
2098.051	0.12	
2100.7	-3.19	
2103.348	-1.87	
2105.993	3.44	
2108.637	-0.87	
2111.279	-0.87	
2113.919	3.11	
2116.558	-0.87	
2119.194	-0.87	
2121.829	3.11	
2124.462	-0.87	
2127.093	-2.2	
2129.723	-0.54	
2132.35	-0.21	
2134.976	-4.85	
2137.6	-2.53	
2140.223	2.78	
2142.843	-1.53	
2145.462	-2.53	
2148.079	2.11	
2150.694	-0.21	
2153.307	1.45	
2155.919	-0.54	
2158.528	-0.87	
2161.137	-1.87	
2163.743	1.45	
2166.347	-0.87	
2168.95	-3.86	
2171.551	-2.2	
2174.15	0.46	
2176.748	5.76	
2179.343	-0.21	
2181.937	-1.53	
2184.529	4.77	
2187.12	-0.21	
2189.708	0.79	
2192.295	-2.53	
2194.88	-0.87	
2197.464	2.11	
2200.045	-0.87	
2202.625	0.79	
2205.203	1.78	
2207.78	0.46	
2210.355	-0.54	
2212.928	1.12	
2215.499	1.12	
2218.068	5.43	
2220.636	-3.52	
2223.202	-0.21	
2225.766	-1.2	
2228.329	3.44	
2230.889	1.45	
2233.449	1.12	
2236.006	-0.21	
2238.562	0.46	
2241.115	5.76	
2243.668	0.79	
2246.218	-2.53	
2248.767	2.11	
2251.314	1.45	
2253.859	-0.87	
2256.403	0.79	
2258.945	3.11	
2261.485	2.11	
2264.023	4.1	
2266.56	-4.19	
2269.095	3.77	
2271.629	2.11	
2274.16	-0.54	
2276.69	-3.19	
2279.219	-0.54	
2281.745	-0.21	
2284.27	4.1	
2286.793	1.12	
2289.315	-0.21	
2291.835	-0.87	
2294.353	0.79	
2296.869	0.12	
2299.384	1.78	
2301.897	0.12	
2304.408	3.11	
2306.918	0.46	
2309.426	-2.53	
2311.932	2.78	
2314.437	2.78	
2316.94	1.12	
2319.441	1.12	
2321.941	-2.2	
2324.439	2.11	
2326.935	-1.87	
2329.43	-1.53	
2331.923	3.44	
2334.414	1.12	
2336.904	-1.53	
2339.392	1.45	
2341.878	3.44	
2344.363	1.45	
2346.846	1.45	
2349.328	4.1	
2351.807	3.44	
2354.285	0.12	
2356.762	-1.87	
2359.237	0.46	
2361.71	1.78	
2364.181	-1.87	
2366.651	0.79	
2369.119	2.45	
2371.586	1.45	
2374.051	0.79	
2376.514	-0.54	
2378.976	0.79	
2381.436	5.1	
2383.894	2.11	
2386.351	2.45	
2388.806	1.78	
2391.259	3.44	
2393.711	1.78	
2396.161	-1.87	
2398.61	4.44	
2401.057	-0.54	
2403.502	-0.54	
2405.946	3.44	
2408.388	1.12	
2410.829	3.11	
2413.268	0.79	
2415.705	-2.2	
2418.141	-1.2	
2420.575	-1.87	
2423.007	-0.54	
2425.438	1.45	
2427.867	-2.86	
2430.295	-1.53	
2432.721	-0.54	
2435.145	-3.19	
2437.568	2.11	
2439.989	-0.54	
2442.409	0.12	
2444.827	-0.21	
2447.243	-0.54	
2449.658	-1.87	
2452.071	0.79	
2454.483	-0.21	
2456.893	-2.2	
2459.302	3.77	
2461.709	1.45	
2464.114	-1.2	
2466.518	5.1	
2468.92	-0.54	
2471.32	-0.54	
2473.719	6.43	
2476.117	1.45	
2478.512	0.12	
2480.907	-2.53	
2483.299	-3.19	
2485.691	-0.54	
2488.08	2.78	
2490.468	-3.19	
2492.854	0.12	
2495.239	2.45	
2497.623	0.46	
2500.004	1.78	
2502.384	-2.86	
2504.763	4.44	
2507.14	3.11	
2509.515	-4.19	
2511.889	-0.87	
2514.262	2.11	
2516.633	-3.19	
2519.002	1.78	
2521.369	2.11	
2523.736	1.45	
2526.1	0.79	
2528.463	-0.54	
2530.825	-0.87	
2533.185	1.45	
2535.543	-0.21	
2537.9	0.12	
2540.255	-1.2	
2542.609	2.45	
2544.961	3.44	
2547.312	-1.87	
2549.661	2.11	
2552.009	-1.2	
2554.355	3.11	
2556.7	0.79	
2559.043	-0.54	
2561.384	4.77	
2563.724	-1.53	
2566.063	2.45	
2568.4	4.44	
2570.735	1.12	
2573.069	-0.54	
2575.402	4.1	
2577.733	0.12	
2580.062	1.12	
2582.39	1.12	
2584.716	1.45	
2587.041	2.45	
2589.364	-1.53	
2591.686	-0.21	
2594.006	2.11	
2596.325	3.44	
2598.643	2.11	
2600.958	-0.87	
2603.273	0.79	
2605.585	-0.87	
2607.897	-1.53	
2610.206	0.46	
2612.515	4.77	
2614.822	1.12	
2617.127	0.12	
2619.431	-0.54	
2621.733	1.45	
2624.034	3.44	
2626.333	2.45	
2628.631	0.12	
2630.927	0.79	
2633.222	-0.54	
2635.515	2.11	
2637.807	4.1	
2640.098	2.78	
2642.387	0.12	
2644.674	3.44	
2646.96	-0.87	
2649.245	2.45	
2651.528	1.45	
2653.809	2.45	
2656.089	0.46	
2658.368	1.78	
2660.645	8.75	
2662.921	6.09	
2665.195	3.44	
2667.468	4.77	
2669.739	6.09	
2672.009	3.77	
2674.277	6.76	
2676.544	5.76	
2678.809	6.76	
2681.073	5.1	
2683.336	10.07	
2685.597	6.76	
2687.856	9.41	
2690.115	10.41	
2692.371	13.72	
2694.626	9.08	
2696.88	12.73	
2699.133	12.06	
2701.383	12.06	
2703.633	14.05	
2705.881	11.73	
2708.127	12.73	
2710.373	14.05	
2712.616	15.38	
2714.859	14.05	
2717.099	13.06	
2719.339	11.4	
2721.577	14.72	
2723.813	17.37	
2726.048	14.72	
2728.282	16.04	
2730.514	17.04	
2732.745	12.4	
2734.974	12.06	
2737.202	17.7	
2739.428	21.68	
2741.653	19.36	
2743.877	26.99	
2746.099	24.67	
2748.32	24.34	
2750.539	21.35	
2752.757	20.02	
2754.974	23.34	
2757.189	22.01	
2759.403	24	
2761.615	23.34	
2763.826	24.34	
2766.035	19.36	
2768.243	26.33	
2770.45	25.99	
2772.655	27.98	
2774.859	25.66	
2777.062	29.97	
2779.263	23.01	
2781.462	26.99	
2783.66	27.98	
2785.857	30.64	
2788.053	35.61	
2790.247	31.63	
2792.439	31.63	
2794.631	36.94	
2796.82	34.62	
2799.009	42.58	
2801.196	46.89	
2803.382	40.59	
2805.566	46.89	
2807.749	48.88	
2809.93	50.54	
2812.11	51.86	
2814.289	52.53	
2816.466	54.18	
2818.642	54.85	
2820.817	56.51	
2822.99	54.85	
2825.162	61.81	
2827.332	59.82	
2829.502	65.13	
2831.669	68.45	
2833.836	70.77	
2836	73.75	
2838.164	74.75	
2840.326	78.4	
2842.487	84.7	
2844.647	84.37	
2846.805	88.35	
2848.961	90	
2851.117	97.3	
2853.271	98.96	
2855.423	102.94	
2857.575	104.6	
2859.725	113.88	
2861.873	117.86	
2864.02	114.88	
2866.166	122.51	
2868.311	124.17	
2870.454	125.49	
2872.596	129.14	
2874.736	127.48	
2876.875	130.47	
2879.013	134.78	
2881.149	130.8	
2883.284	133.78	
2885.418	131.46	
2887.551	132.46	
2889.682	130.47	
2891.811	129.47	
2893.94	125.82	
2896.067	126.16	
2898.192	129.47	
2900.317	123.17	
2902.439	132.79	
2904.561	137.1	
2906.681	137.76	
2908.8	145.39	
2910.918	147.38	
2913.034	157	
2915.149	158.99	
2917.263	162.31	
2919.375	159.65	
2921.486	153.68	
2923.596	147.71	
2925.704	134.45	
2927.811	121.51	
2929.917	120.52	
2932.021	115.21	
2934.124	113.22	
2936.226	106.92	
2938.327	101.61	
2940.426	101.61	
2942.524	92.33	
2944.62	95.97	
2946.715	90.67	
2948.809	85.36	
2950.902	80.72	
2952.993	76.07	
2955.083	75.41	
2957.171	75.41	
2959.259	69.11	
2961.345	63.8	
2963.429	61.15	
2965.513	60.49	
2967.595	53.19	
2969.676	48.21	
2971.755	46.22	
2973.833	48.21	
2975.91	45.89	
2977.986	36.61	
2980.06	42.91	
2982.133	35.28	
2984.205	31.63	
2986.275	32.29	
2988.345	32.63	
2990.412	32.96	
2992.479	30.64	
2994.544	32.63	
2996.608	29.97	
2998.671	27.65	
3000.732	26.99	
3002.792	25.66	
3004.851	25.66	
3006.909	25	
3008.965	24	
3011.02	21.35	
3013.074	22.68	
3015.126	18.03	
3017.177	15.38	
3019.227	16.04	
3021.276	11.07	
3023.323	9.74	
3025.369	14.39	
3027.414	9.08	
3029.458	9.74	
3031.5	10.41	
3033.541	8.08	
3035.581	4.1	
3037.619	7.42	
3039.656	6.76	
3041.692	4.1	
3043.727	4.44	
3045.76	4.1	
3047.793	3.77	
3049.824	3.77	
3051.853	0.46	
3053.882	0.46	
3055.909	1.78	
