RamanShift:204		
0.351	-541.51	
4.587	-75.29	
8.82	-22.22	
13.049	-16.58	
17.275	-13.6	
21.497	-7.63	
25.716	-3.98	
29.931	-8.29	
34.142	-3.65	
38.351	-3.98	
42.555	0.33	
46.756	1.99	
50.954	-3.32	
55.148	-1.66	
59.339	-0.99	
63.527	-1.33	
67.71	-1.99	
71.891	-5.97	
76.068	-0.99	
80.241	2.32	
84.411	1.99	
88.578	1.33	
92.741	1.99	
96.901	2.32	
101.057	1.66	
105.21	0	
109.359	0.99	
113.505	2.65	
117.648	5.64	
121.787	6.96	
125.923	3.32	
130.055	9.29	
134.184	9.29	
138.31	9.62	
142.432	12.27	
146.551	14.26	
150.667	12.6	
154.779	20.89	
158.887	22.55	
162.993	20.56	
167.095	23.22	
171.193	25.87	
175.289	27.2	
179.381	30.18	
183.469	34.82	
187.554	37.15	
191.636	36.81	
195.715	33.83	
199.79	31.51	
203.862	35.49	
207.931	33.5	
211.996	35.16	
216.058	38.14	
220.116	39.47	
224.172	38.14	
228.224	43.45	
232.272	44.11	
236.318	48.09	
240.36	49.09	
244.399	50.74	
248.434	53.73	
252.466	47.76	
256.495	54.72	
260.521	59.37	
264.544	55.39	
268.563	62.35	
272.579	61.36	
276.591	61.69	
280.601	65.67	
284.607	71.31	
288.61	85.24	
292.609	97.84	
296.606	111.44	
300.599	122.05	
304.589	116.41	
308.575	107.13	
312.559	92.2	
316.539	89.22	
320.516	87.89	
324.49	102.48	
328.461	103.48	
332.428	111.44	
336.392	100.16	
340.353	86.9	
344.311	83.25	
348.266	69.32	
352.217	57.38	
356.165	54.39	
360.11	46.76	
364.052	48.42	
367.991	48.09	
371.926	52.4	
375.859	56.38	
379.788	54.06	
383.714	51.41	
387.637	52.73	
391.557	51.74	
395.473	44.44	
399.387	38.14	
403.297	37.48	
407.204	44.44	
411.108	37.48	
415.009	32.5	
418.907	29.19	
422.802	36.81	
426.693	32.83	
430.581	27.86	
434.467	23.88	
438.349	24.87	
442.228	29.19	
446.104	20.89	
449.977	21.23	
453.847	21.89	
457.713	20.89	
461.577	28.19	
465.438	36.81	
469.295	41.13	
473.149	39.47	
477.001	41.46	
480.849	38.14	
484.694	40.79	
488.536	32.17	
492.375	26.53	
496.211	25.21	
500.044	24.21	
503.874	19.9	
507.701	25.21	
511.525	22.88	
515.346	18.9	
519.163	25.87	
522.978	23.55	
526.79	29.19	
530.598	30.18	
534.404	29.85	
538.207	28.19	
542.006	30.18	
545.803	24.54	
549.596	26.53	
553.387	21.23	
557.175	19.24	
560.959	18.9	
564.741	13.93	
568.519	16.25	
572.295	18.24	
576.068	16.58	
579.837	15.26	
583.604	10.28	
587.368	13.6	
591.128	14.92	
594.886	11.61	
598.641	12.6	
602.393	12.6	
606.142	16.25	
609.887	13.27	
613.63	15.92	
617.37	20.56	
621.108	18.57	
624.842	25.87	
628.573	34.16	
632.301	29.19	
636.027	28.85	
639.749	34.49	
643.468	39.47	
647.185	49.09	
650.899	62.68	
654.609	99.5	
658.317	161.52	
662.022	244.44	
665.724	332.34	
669.423	345.94	
673.119	285.57	
676.813	184.74	
680.503	109.12	
684.191	73.63	
687.875	61.36	
691.557	75.29	
695.236	92.87	
698.912	106.46	
702.585	117.41	
706.256	102.82	
709.923	75.29	
713.588	50.41	
717.249	32.5	
720.908	26.53	
724.564	19.24	
728.217	14.92	
731.868	14.92	
735.515	10.28	
739.16	11.61	
742.801	10.94	
746.44	10.61	
750.076	5.97	
753.71	11.94	
757.34	15.59	
760.968	11.28	
764.593	12.6	
768.215	17.25	
771.834	17.25	
775.45	23.22	
779.064	25.21	
782.675	30.18	
786.283	38.14	
789.888	48.42	
793.49	52.73	
797.09	62.02	
800.686	61.36	
804.281	73.3	
807.872	78.94	
811.46	77.61	
815.046	86.23	
818.629	82.58	
822.209	79.6	
825.786	80.93	
829.361	87.23	
832.933	89.22	
836.502	93.2	
840.068	94.86	
843.632	79.93	
847.193	73.3	
850.751	67.33	
854.306	66.33	
857.859	62.35	
861.409	66.33	
864.956	66	
868.5	64.34	
872.042	68.32	
875.581	65.34	
879.117	74.96	
882.651	77.94	
886.182	67.66	
889.71	61.36	
893.235	47.1	
896.758	41.46	
900.278	39.14	
903.795	37.81	
907.31	38.14	
910.822	37.81	
914.331	36.15	
917.838	39.8	
921.341	37.81	
924.843	35.82	
928.341	31.84	
931.837	30.51	
935.33	32.83	
938.821	32.83	
942.308	36.48	
945.793	37.81	
949.276	38.47	
952.756	39.14	
956.233	30.51	
959.707	25.54	
963.179	22.88	
966.649	19.57	
970.115	22.88	
973.579	25.54	
977.04	26.2	
980.499	27.2	
983.955	28.85	
987.408	27.86	
990.859	29.85	
994.307	35.16	
997.753	43.12	
1001.196	45.11	
1004.636	57.05	
1008.074	65.01	
1011.509	77.61	
1014.941	80.93	
1018.371	87.56	
1021.798	89.88	
1025.223	92.53	
1028.645	92.53	
1032.064	97.18	
1035.481	96.51	
1038.896	102.82	
1042.307	98.5	
1045.716	101.49	
1049.123	100.16	
1052.527	92.53	
1055.928	98.17	
1059.327	93.53	
1062.723	89.22	
1066.117	84.57	
1069.508	81.59	
1072.897	89.55	
1076.283	81.92	
1079.666	78.6	
1083.047	76.28	
1086.425	69.32	
1089.801	65.67	
1093.174	65.34	
1096.545	59.04	
1099.913	64.34	
1103.279	69.32	
1106.642	64.01	
1110.002	69.32	
1113.36	73.96	
1116.716	66.33	
1120.069	63.35	
1123.419	58.04	
1126.767	59.37	
1130.113	53.4	
1133.456	49.42	
1136.796	48.42	
1140.134	41.79	
1143.47	42.12	
1146.802	29.85	
1150.133	27.53	
1153.461	17.58	
1156.786	19.9	
1160.109	13.6	
1163.43	10.28	
1166.748	14.26	
1170.063	12.27	
1173.376	8.62	
1176.687	12.6	
1179.995	12.6	
1183.3	12.27	
1186.603	11.94	
1189.904	17.25	
1193.202	15.26	
1196.498	17.25	
1199.791	27.2	
1203.082	17.25	
1206.37	24.54	
1209.656	24.54	
1212.94	27.86	
1216.221	28.52	
1219.499	33.83	
1222.775	40.13	
1226.049	44.44	
1229.32	45.11	
1232.589	47.76	
1235.856	49.75	
1239.12	50.41	
1242.381	56.05	
1245.64	54.39	
1248.897	56.05	
1252.151	51.41	
1255.403	54.06	
1258.652	53.07	
1261.9	55.72	
1265.144	63.02	
1268.386	73.3	
1271.626	79.93	
1274.864	89.22	
1278.099	85.24	
1281.331	83.25	
1284.562	81.59	
1287.789	74.29	
1291.015	67	
1294.238	65.67	
1297.459	60.69	
1300.677	48.75	
1303.893	50.41	
1307.106	38.8	
1310.318	39.47	
1313.526	33.83	
1316.733	31.51	
1319.937	25.54	
1323.139	22.88	
1326.338	34.16	
1329.535	26.86	
1332.73	23.88	
1335.922	24.21	
1339.112	23.88	
1342.3	21.56	
1345.485	21.23	
1348.668	24.87	
1351.848	19.24	
1355.027	20.89	
1358.203	21.23	
1361.376	23.55	
1364.547	21.89	
1367.716	24.87	
1370.883	22.22	
1374.047	26.53	
1377.209	23.55	
1380.369	24.54	
1383.526	25.21	
1386.681	29.19	
1389.834	23.55	
1392.984	29.19	
1396.132	38.8	
1399.278	38.14	
1402.421	50.08	
1405.562	56.71	
1408.701	64.34	
1411.838	66	
1414.972	69.98	
1418.104	58.37	
1421.234	53.73	
1424.361	52.4	
1427.486	47.76	
1430.609	56.05	
1433.73	52.73	
1436.848	61.36	
1439.964	72.97	
1443.078	80.59	
1446.189	91.87	
1449.299	91.54	
1452.405	102.15	
1455.51	105.14	
1458.613	107.46	
1461.713	104.14	
1464.811	98.84	
1467.906	103.15	
1471	86.9	
1474.091	78.94	
1477.18	64.01	
1480.267	48.42	
1483.351	32.17	
1486.433	28.85	
1489.513	19.9	
1492.591	14.26	
1495.666	8.29	
1498.74	6.3	
1501.811	2.32	
1504.879	3.98	
1507.946	5.97	
1511.01	0	
1514.073	1.33	
1517.132	0.66	
1520.19	-0.33	
1523.246	-1.33	
1526.299	-0.99	
1529.35	-3.32	
1532.399	2.65	
1535.446	0	
1538.49	6.3	
1541.532	-3.32	
1544.572	1.33	
1547.61	-1.99	
1550.646	-2.65	
1553.68	-6.3	
1556.711	-2.32	
1559.74	-8.62	
1562.767	-1.99	
1565.792	-5.31	
1568.814	-0.33	
1571.835	-4.31	
1574.853	-4.97	
1577.869	-0.66	
1580.883	-4.31	
1583.895	-0.66	
1586.904	-2.98	
1589.912	-1.99	
1592.917	-1.99	
1595.92	-0.99	
1598.921	-0.99	
1601.92	-9.29	
1604.917	-6.63	
1607.911	-2.98	
1610.903	0.99	
1613.894	-6.3	
1616.882	-3.65	
1619.868	-4.64	
1622.851	-9.29	
1625.833	-6.63	
1628.812	-5.64	
1631.79	-5.64	
1634.765	-5.64	
1637.738	-0.33	
1640.709	-3.98	
1643.678	-4.64	
1646.645	-3.65	
1649.609	-2.98	
1652.572	-5.97	
1655.532	-3.65	
1658.49	-3.98	
1661.447	-2.32	
1664.401	-6.63	
1667.353	-7.63	
1670.302	-2.98	
1673.25	-4.97	
1676.196	-5.64	
1679.139	-8.29	
1682.081	-5.97	
1685.02	-4.64	
1687.957	-5.64	
1690.893	-6.3	
1693.826	-9.29	
1696.757	-5.64	
1699.686	-5.64	
1702.612	-3.32	
1705.537	-6.63	
1708.46	-3.32	
1711.38	-6.96	
1714.299	-7.63	
1717.215	-7.63	
1720.13	-3.98	
1723.042	-5.97	
1725.952	-9.95	
1728.86	-5.31	
1731.767	-2.98	
1734.671	-4.64	
1737.573	-4.64	
1740.473	-3.32	
1743.37	-5.31	
1746.266	-7.63	
1749.16	-9.29	
1752.052	-7.3	
1754.942	-1.66	
1757.829	-3.65	
1760.715	-7.63	
1763.598	-8.62	
1766.48	-7.63	
1769.36	-6.63	
1772.237	-4.31	
1775.112	-8.29	
1777.986	-5.64	
1780.857	-6.96	
1783.727	-3.65	
1786.594	-8.62	
1789.459	-6.96	
1792.323	-10.28	
1795.184	-5.31	
1798.043	-10.28	
1800.9	-5.64	
1803.756	-4.31	
1806.609	-4.64	
1809.46	-6.63	
1812.309	-9.29	
1815.157	-2.65	
1818.002	-4.97	
1820.845	-11.61	
1823.686	-2.65	
1826.526	-4.31	
1829.363	-8.95	
1832.198	-5.64	
1835.031	-10.28	
1837.863	-2.98	
1840.692	-6.3	
1843.519	-2.65	
1846.345	-7.96	
1849.168	-3.65	
1851.989	-5.31	
1854.809	-7.63	
1857.626	-10.28	
1860.441	-8.29	
1863.255	-5.31	
1866.066	-6.96	
1868.876	-1.66	
1871.684	-8.29	
1874.489	-9.62	
1877.293	-12.6	
1880.095	-7.63	
1882.894	-1.66	
1885.692	-10.28	
1888.488	-4.31	
1891.282	-5.31	
1894.074	-7.3	
1896.864	-9.95	
1899.652	-8.95	
1902.438	-6.63	
1905.222	-5.97	
1908.004	-7.96	
1910.785	-8.29	
1913.563	-2.98	
1916.339	-5.97	
1919.114	-7.3	
1921.886	-8.95	
1924.657	-9.29	
1927.426	-6.63	
1930.193	-7.63	
1932.957	-9.62	
1935.72	-2.98	
1938.481	-7.3	
1941.24	-4.31	
1943.998	-3.98	
1946.753	-4.97	
1949.506	-6.3	
1952.258	-6.3	
1955.007	-7.63	
1957.755	-3.98	
1960.501	-5.97	
1963.245	-6.96	
1965.986	-5.97	
1968.726	-7.96	
1971.465	-9.95	
1974.201	-7.3	
1976.935	-5.31	
1979.668	-7.96	
1982.398	-3.65	
1985.127	-3.98	
1987.854	-7.3	
1990.579	-4.97	
1993.302	-8.29	
1996.023	-5.64	
1998.742	-4.64	
2001.46	-6.96	
2004.175	-8.95	
2006.889	-4.64	
2009.6	-4.64	
2012.31	-5.97	
2015.018	-0.99	
2017.725	-6.3	
2020.429	0.99	
2023.131	-4.97	
2025.832	-4.31	
2028.531	-2.98	
2031.228	-4.64	
2033.923	-7.63	
2036.616	-8.62	
2039.307	-5.97	
2041.997	-3.65	
2044.684	-1.99	
2047.37	-4.31	
2050.054	-1.33	
2052.736	-4.31	
2055.416	-4.97	
2058.095	-7.3	
2060.771	-3.65	
2063.446	-1.33	
2066.119	-4.64	
2068.79	-3.32	
2071.459	-6.63	
2074.127	-2.32	
2076.792	-3.65	
2079.456	-4.64	
2082.118	-6.63	
2084.778	-2.98	
2087.436	-4.31	
2090.093	-5.97	
2092.747	-3.65	
2095.4	-6.96	
2098.051	-5.31	
2100.7	-4.97	
2103.348	-4.64	
2105.993	-3.98	
2108.637	-4.64	
2111.279	-5.31	
2113.919	-0.33	
2116.558	-0.99	
2119.194	-1.99	
2121.829	-2.65	
2124.462	-5.97	
2127.093	-0.99	
2129.723	-3.65	
2132.35	-6.63	
2134.976	-3.98	
2137.6	-5.97	
2140.223	-0.99	
2142.843	-3.65	
2145.462	-3.65	
2148.079	-0.99	
2150.694	-6.3	
2153.307	-0.33	
2155.919	-6.3	
2158.528	-1.33	
2161.137	-3.32	
2163.743	-3.98	
2166.347	-5.31	
2168.95	-4.31	
2171.551	-3.32	
2174.15	-4.97	
2176.748	-0.66	
2179.343	-1.66	
2181.937	-2.98	
2184.529	-0.99	
2187.12	-3.98	
2189.708	-2.98	
2192.295	-3.98	
2194.88	-3.32	
2197.464	-5.31	
2200.045	-4.31	
2202.625	-1.33	
2205.203	-1.66	
2207.78	-2.98	
2210.355	-3.32	
2212.928	-2.98	
2215.499	1.66	
2218.068	-2.65	
2220.636	-5.64	
2223.202	-3.65	
2225.766	-1.66	
2228.329	-3.32	
2230.889	-3.65	
2233.449	0.33	
2236.006	-2.32	
2238.562	-3.32	
2241.115	-0.99	
2243.668	0.66	
2246.218	-4.64	
2248.767	-3.98	
2251.314	0.66	
2253.859	-3.32	
2256.403	0	
2258.945	-0.99	
2261.485	-2.32	
2264.023	-0.33	
2266.56	-3.32	
2269.095	-0.99	
2271.629	-1.66	
2274.16	-6.3	
2276.69	-3.65	
2279.219	-4.31	
2281.745	-2.32	
2284.27	-0.66	
2286.793	-0.66	
2289.315	-3.32	
2291.835	-5.64	
2294.353	-3.98	
2296.869	-4.31	
2299.384	0.66	
2301.897	-5.64	
2304.408	-3.65	
2306.918	-2.32	
2309.426	-1.33	
2311.932	-0.66	
2314.437	-1.33	
2316.94	-0.66	
2319.441	-1.99	
2321.941	-3.98	
2324.439	0.33	
2326.935	-5.31	
2329.43	-3.98	
2331.923	-0.99	
2334.414	-1.99	
2336.904	-1.99	
2339.392	-3.65	
2341.878	-1.33	
2344.363	-0.99	
2346.846	-0.99	
2349.328	0	
2351.807	0.33	
2354.285	-2.32	
2356.762	-1.66	
2359.237	-1.66	
2361.71	-2.98	
2364.181	-3.65	
2366.651	-3.32	
2369.119	-1.66	
2371.586	-0.99	
2374.051	0	
2376.514	-3.98	
2378.976	-2.32	
2381.436	2.32	
2383.894	-4.64	
2386.351	-1.66	
2388.806	-1.99	
2391.259	0	
2393.711	-0.66	
2396.161	-5.64	
2398.61	1.33	
2401.057	-2.65	
2403.502	-3.65	
2405.946	0.99	
2408.388	-0.66	
2410.829	-2.98	
2413.268	-0.33	
2415.705	-3.32	
2418.141	-5.31	
2420.575	-2.32	
2423.007	-0.99	
2425.438	-2.32	
2427.867	-7.3	
2430.295	-4.31	
2432.721	-4.31	
2435.145	-3.65	
2437.568	-0.33	
2439.989	-2.65	
2442.409	-3.32	
2444.827	-1.66	
2447.243	-4.64	
2449.658	-2.32	
2452.071	-1.33	
2454.483	-1.33	
2456.893	-3.98	
2459.302	-3.32	
2461.709	-2.98	
2464.114	-4.31	
2466.518	1.99	
2468.92	-4.64	
2471.32	-2.32	
2473.719	1.33	
2476.117	-1.99	
2478.512	-1.33	
2480.907	-4.64	
2483.299	-0.99	
2485.691	-4.64	
2488.08	0.66	
2490.468	-2.98	
2492.854	-2.65	
2495.239	0.33	
2497.623	0	
2500.004	-3.32	
2502.384	-1.66	
2504.763	-1.66	
2507.14	-3.98	
2509.515	-3.98	
2511.889	-4.31	
2514.262	-2.32	
2516.633	-2.98	
2519.002	-2.32	
2521.369	-2.98	
2523.736	-3.32	
2526.1	-1.33	
2528.463	-0.33	
2530.825	-1.33	
2533.185	-0.66	
2535.543	-3.65	
2537.9	-4.64	
2540.255	-5.64	
2542.609	-2.32	
2544.961	0.66	
2547.312	-1.99	
2549.661	0	
2552.009	0.66	
2554.355	1.33	
2556.7	0.99	
2559.043	-1.99	
2561.384	-1.99	
2563.724	-3.32	
2566.063	0.33	
2568.4	1.66	
2570.735	-2.65	
2573.069	-3.65	
2575.402	1.99	
2577.733	-1.66	
2580.062	-3.32	
2582.39	-1.33	
2584.716	-1.99	
2587.041	-3.65	
2589.364	-1.66	
2591.686	-5.31	
2594.006	-4.97	
2596.325	1.66	
2598.643	-0.99	
2600.958	-2.98	
2603.273	-1.33	
2605.585	-0.33	
2607.897	-5.31	
2610.206	-1.66	
2612.515	1.33	
2614.822	-0.66	
2617.127	0.66	
2619.431	-3.98	
2621.733	-3.32	
2624.034	1.33	
2626.333	-0.66	
2628.631	-2.98	
2630.927	-0.33	
2633.222	0	
2635.515	-3.32	
2637.807	0.33	
2640.098	0.66	
2642.387	-3.32	
2644.674	0.66	
2646.96	-4.31	
2649.245	0.33	
2651.528	-0.33	
2653.809	-2.65	
2656.089	-3.32	
2658.368	-2.65	
2660.645	1.99	
2662.921	1.33	
2665.195	1.33	
2667.468	0.66	
2669.739	0	
2672.009	-0.33	
2674.277	0	
2676.544	-1.66	
2678.809	1.33	
2681.073	1.33	
2683.336	1.66	
2685.597	1.99	
2687.856	3.32	
2690.115	3.32	
2692.371	6.63	
2694.626	5.64	
2696.88	6.3	
2699.133	5.31	
2701.383	5.64	
2703.633	4.64	
2705.881	3.32	
2708.127	8.29	
2710.373	4.64	
2712.616	6.3	
2714.859	5.64	
2717.099	2.65	
2719.339	2.98	
2721.577	8.29	
2723.813	5.97	
2726.048	6.63	
2728.282	6.63	
2730.514	7.96	
2732.745	8.29	
2734.974	6.3	
2737.202	9.29	
2739.428	14.59	
2741.653	7.3	
2743.877	9.95	
2746.099	9.95	
2748.32	10.94	
2750.539	12.27	
2752.757	11.61	
2754.974	10.94	
2757.189	9.62	
2759.403	13.93	
2761.615	12.93	
2763.826	13.6	
2766.035	12.27	
2768.243	11.28	
2770.45	14.92	
2772.655	17.25	
2774.859	12.6	
2777.062	16.25	
2779.263	17.58	
2781.462	23.88	
2783.66	14.59	
2785.857	19.57	
2788.053	17.58	
2790.247	20.89	
2792.439	17.25	
2794.631	20.56	
2796.82	17.58	
2799.009	26.2	
2801.196	25.21	
2803.382	25.87	
2805.566	29.85	
2807.749	27.2	
2809.93	27.2	
2812.11	32.17	
2814.289	31.51	
2816.466	35.49	
2818.642	34.82	
2820.817	34.16	
2822.99	31.18	
2825.162	39.47	
2827.332	38.47	
2829.502	42.78	
2831.669	42.78	
2833.836	42.78	
2836	43.12	
2838.164	46.1	
2840.326	50.74	
2842.487	53.73	
2844.647	48.42	
2846.805	53.4	
2848.961	60.36	
2851.117	65	
2853.271	65.67	
2855.423	68.65	
2857.575	65	
2859.725	69.98	
2861.873	77.28	
2864.02	75.29	
2866.166	82.25	
2868.311	78.6	
2870.454	78.93	
2872.596	74.96	
2874.736	75.95	
2876.875	81.26	
2879.013	85.9	
2881.149	76.28	
2883.284	81.59	
2885.418	84.9	
2887.551	85.9	
2889.682	82.25	
2891.811	82.91	
2893.94	79.27	
2896.067	81.59	
2898.192	81.59	
2900.317	80.92	
2902.439	83.58	
2904.561	89.88	
2906.681	94.52	
2908.8	92.53	
2910.918	100.49	
2913.034	102.81	
2915.149	103.48	
2917.263	106.79	
2919.375	106.79	
2921.486	99.83	
2923.596	94.52	
2925.704	91.21	
2927.811	85.9	
2929.917	79.27	
2932.021	74.29	
2934.124	74.29	
2936.226	67.66	
2938.327	74.29	
2940.426	66	
2942.524	64.67	
2944.62	62.02	
2946.715	61.36	
2948.809	53.73	
2950.902	53.07	
2952.993	51.08	
2955.083	50.41	
2957.171	48.75	
2959.259	39.8	
2961.345	42.45	
2963.429	43.45	
2965.513	39.8	
2967.595	32.5	
2969.676	31.51	
2971.755	28.52	
2973.833	28.52	
2975.91	29.85	
2977.986	24.54	
2980.06	25.21	
2982.133	25.87	
2984.205	21.89	
2986.275	23.55	
2988.345	19.57	
2990.412	21.56	
2992.479	18.24	
2994.544	18.57	
2996.608	19.9	
2998.671	19.24	
3000.732	14.92	
3002.792	18.24	
3004.851	15.26	
3006.909	15.59	
3008.965	17.25	
3011.02	14.26	
3013.074	16.58	
3015.126	9.62	
3017.177	7.96	
3019.227	8.29	
3021.276	8.62	
3023.323	3.32	
3025.369	5.64	
3027.414	4.97	
3029.458	3.98	
3031.5	6.63	
3033.541	0.66	
3035.581	5.64	
3037.619	4.64	
3039.656	1.33	
3041.692	3.32	
3043.727	1.99	
3045.76	3.32	
3047.793	2.32	
3049.824	2.98	
3051.853	0.33	
3053.882	0	
3055.909	0	
