RamanShift:204		
0.351	-416.38	
4.587	-65.34	
8.82	-29.52	
13.049	-20.56	
17.275	-13.27	
21.497	-8.62	
25.716	-2.98	
29.931	-2.65	
34.142	-4.31	
38.351	-2.98	
42.555	-5.64	
46.756	-4.31	
50.954	-7.96	
55.148	-2.32	
59.339	-1.33	
63.527	-2.98	
67.71	-0.99	
71.891	-3.65	
76.068	-0.99	
80.241	-1.33	
84.411	0.66	
88.578	2.98	
92.741	4.31	
96.901	-2.98	
101.057	0.66	
105.21	4.31	
109.359	2.65	
113.505	2.32	
117.648	0	
121.787	0.99	
125.923	5.97	
130.055	8.62	
134.184	6.63	
138.31	7.96	
142.432	6.96	
146.551	8.95	
150.667	7.96	
154.779	13.27	
158.887	14.59	
162.993	13.93	
167.095	14.92	
171.193	14.92	
175.289	13.93	
179.381	12.27	
183.469	20.23	
187.554	20.89	
191.636	20.56	
195.715	21.23	
199.79	18.9	
203.862	16.25	
207.931	16.58	
211.996	13.93	
216.058	14.92	
220.116	13.27	
224.172	14.59	
228.224	21.89	
232.272	18.57	
236.318	24.21	
240.36	20.23	
244.399	25.21	
248.434	20.56	
252.466	21.23	
256.495	19.9	
260.521	18.24	
264.544	21.89	
268.563	23.22	
272.579	24.87	
276.591	23.55	
280.601	20.56	
284.607	31.18	
288.61	40.46	
292.609	56.05	
296.606	66	
300.599	68.32	
304.589	68.99	
308.575	59.04	
312.559	51.41	
316.539	48.75	
320.516	48.09	
324.49	52.4	
328.461	62.68	
332.428	65.67	
336.392	66.66	
340.353	58.37	
344.311	55.39	
348.266	37.15	
352.217	35.82	
356.165	27.53	
360.11	24.87	
364.052	28.19	
367.991	27.86	
371.926	30.51	
375.859	34.82	
379.788	38.47	
383.714	36.81	
387.637	35.16	
391.557	30.51	
395.473	32.83	
399.387	28.19	
403.297	34.82	
407.204	30.84	
411.108	34.16	
415.009	30.51	
418.907	24.87	
422.802	26.86	
426.693	25.87	
430.581	19.9	
434.467	18.57	
438.349	15.92	
442.228	17.91	
446.104	16.91	
449.977	13.93	
453.847	16.58	
457.713	20.56	
461.577	28.85	
465.438	38.8	
469.295	42.12	
473.149	54.39	
477.001	69.65	
480.849	61.69	
484.694	58.04	
488.536	48.75	
492.375	41.13	
496.211	26.53	
500.044	25.54	
503.874	15.26	
507.701	16.91	
511.525	18.57	
515.346	14.92	
519.163	16.25	
522.978	13.27	
526.79	10.94	
530.598	13.6	
534.404	15.26	
538.207	13.93	
542.006	14.59	
545.803	17.91	
549.596	9.62	
553.387	15.92	
557.175	9.29	
560.959	7.3	
564.741	6.63	
568.519	5.31	
572.295	4.31	
576.068	6.3	
579.837	7.63	
583.604	8.62	
587.368	7.3	
591.128	8.29	
594.886	6.96	
598.641	7.3	
602.393	6.96	
606.142	7.3	
609.887	11.94	
613.63	12.6	
617.37	12.93	
621.108	21.89	
624.842	21.56	
628.573	21.23	
632.301	20.89	
636.027	31.51	
639.749	22.55	
643.468	28.52	
647.185	35.16	
650.899	46.76	
654.609	69.65	
658.317	106.13	
662.022	168.16	
665.724	261.03	
669.423	299.17	
673.119	267.33	
676.813	193.36	
680.503	119.07	
684.191	74.96	
687.875	53.73	
691.557	55.39	
695.236	64.34	
698.912	78.6	
702.585	96.51	
706.256	94.19	
709.923	76.95	
713.588	55.06	
717.249	29.52	
720.908	19.57	
724.564	19.24	
728.217	13.93	
731.868	12.6	
735.515	12.93	
739.16	4.64	
742.801	10.28	
746.44	4.31	
750.076	5.64	
753.71	6.63	
757.34	5.31	
760.968	7.96	
764.593	7.96	
768.215	10.28	
771.834	4.31	
775.45	11.28	
779.064	5.64	
782.675	2.32	
786.283	8.29	
789.888	11.94	
793.49	12.27	
797.09	15.59	
800.686	26.53	
804.281	31.18	
807.872	42.12	
811.46	43.78	
815.046	47.43	
818.629	48.09	
822.209	48.75	
825.786	39.8	
829.361	42.12	
832.933	53.73	
836.502	66	
840.068	83.91	
843.632	87.56	
847.193	96.51	
850.751	95.52	
854.306	102.15	
857.859	102.15	
861.409	83.25	
864.956	71.31	
868.5	62.02	
872.042	46.1	
875.581	35.16	
879.117	33.17	
882.651	20.56	
886.182	21.89	
889.71	16.58	
893.235	24.21	
896.758	17.91	
900.278	24.87	
903.795	30.51	
907.31	29.52	
910.822	30.84	
914.331	29.52	
917.838	34.82	
921.341	28.19	
924.843	32.5	
928.341	34.49	
931.837	26.53	
935.33	22.55	
938.821	25.87	
942.308	29.19	
945.793	26.86	
949.276	41.79	
952.756	33.83	
956.233	21.56	
959.707	23.22	
963.179	18.57	
966.649	17.25	
970.115	21.56	
973.579	24.87	
977.04	19.9	
980.499	19.9	
983.955	17.25	
987.408	20.23	
990.859	26.53	
994.307	33.5	
997.753	36.48	
1001.196	44.11	
1004.636	49.42	
1008.074	53.73	
1011.509	57.38	
1014.941	60.36	
1018.371	64.67	
1021.798	70.64	
1025.223	72.63	
1028.645	73.96	
1032.064	77.61	
1035.481	83.25	
1038.896	84.91	
1042.307	87.23	
1045.716	86.9	
1049.123	87.56	
1052.527	89.55	
1055.928	84.91	
1059.327	83.58	
1062.723	81.92	
1066.117	81.59	
1069.508	74.96	
1072.897	69.98	
1076.283	65.01	
1079.666	64.01	
1083.047	74.62	
1086.425	67.99	
1089.801	59.04	
1093.174	58.04	
1096.545	52.4	
1099.913	48.09	
1103.279	50.41	
1106.642	46.76	
1110.002	43.12	
1113.36	45.11	
1116.716	34.49	
1120.069	21.56	
1123.419	17.58	
1126.767	15.26	
1130.113	7.96	
1133.456	8.62	
1136.796	6.63	
1140.134	5.64	
1143.47	5.31	
1146.802	2.32	
1150.133	4.64	
1153.461	8.62	
1156.786	5.97	
1160.109	-0.99	
1163.43	5.97	
1166.748	3.98	
1170.063	3.32	
1173.376	9.29	
1176.687	12.27	
1179.995	12.6	
1183.3	7.63	
1186.603	13.27	
1189.904	15.59	
1193.202	17.91	
1196.498	20.23	
1199.791	15.92	
1203.082	22.55	
1206.37	18.57	
1209.656	21.56	
1212.94	20.89	
1216.221	16.91	
1219.499	20.23	
1222.775	23.88	
1226.049	22.22	
1229.32	26.53	
1232.589	28.52	
1235.856	24.87	
1239.12	27.86	
1242.381	30.51	
1245.64	35.49	
1248.897	35.82	
1252.151	33.17	
1255.403	34.16	
1258.652	32.17	
1261.9	38.8	
1265.144	39.47	
1268.386	35.49	
1271.626	27.53	
1274.864	31.51	
1278.099	26.2	
1281.331	28.85	
1284.562	24.54	
1287.789	18.9	
1291.015	23.22	
1294.238	16.91	
1297.459	18.24	
1300.677	24.87	
1303.893	22.55	
1307.106	27.53	
1310.318	28.19	
1313.526	19.9	
1316.733	13.93	
1319.937	22.55	
1323.139	10.28	
1326.338	18.57	
1329.535	14.92	
1332.73	18.57	
1335.922	22.88	
1339.112	12.27	
1342.3	18.24	
1345.485	16.91	
1348.668	18.9	
1351.848	11.61	
1355.027	15.26	
1358.203	17.91	
1361.376	11.28	
1364.547	11.94	
1367.716	18.24	
1370.883	20.89	
1374.047	15.59	
1377.209	10.28	
1380.369	19.57	
1383.526	19.57	
1386.681	11.94	
1389.834	17.58	
1392.984	14.92	
1396.132	19.9	
1399.278	20.89	
1402.421	29.19	
1405.562	42.12	
1408.701	45.77	
1411.838	40.13	
1414.972	43.12	
1418.104	49.42	
1421.234	37.48	
1424.361	31.51	
1427.486	27.2	
1430.609	29.52	
1433.73	17.91	
1436.848	21.23	
1439.964	27.53	
1443.078	35.16	
1446.189	37.81	
1449.299	45.77	
1452.405	56.05	
1455.51	56.38	
1458.613	67.99	
1461.713	57.05	
1464.811	51.41	
1467.906	51.41	
1471	31.18	
1474.091	23.88	
1477.18	19.24	
1480.267	6.63	
1483.351	6.3	
1486.433	1.99	
1489.513	3.98	
1492.591	-1.33	
1495.666	-3.98	
1498.74	-7.3	
1501.811	-1.99	
1504.879	-3.65	
1507.946	-5.97	
1511.01	-5.31	
1514.073	-7.63	
1517.132	-5.64	
1520.19	-4.31	
1523.246	-2.32	
1526.299	-8.62	
1529.35	-10.94	
1532.399	-7.96	
1535.446	-8.29	
1538.49	-6.63	
1541.532	-4.31	
1544.572	-13.6	
1547.61	-10.94	
1550.646	-10.28	
1553.68	-9.62	
1556.711	-10.94	
1559.74	-6.96	
1562.767	-8.62	
1565.792	-10.61	
1568.814	-7.96	
1571.835	-3.98	
1574.853	-5.97	
1577.869	-12.6	
1580.883	-9.95	
1583.895	-10.94	
1586.904	-10.94	
1589.912	-7.3	
1592.917	-9.29	
1595.92	-5.97	
1598.921	-8.29	
1601.92	-8.29	
1604.917	-7.63	
1607.911	-8.29	
1610.903	-9.62	
1613.894	-11.61	
1616.882	-6.3	
1619.868	-10.94	
1622.851	-7.63	
1625.833	-10.61	
1628.812	-10.94	
1631.79	-5.31	
1634.765	-6.63	
1637.738	-6.3	
1640.709	-9.95	
1643.678	-8.29	
1646.645	-11.28	
1649.609	-6.63	
1652.572	-7.3	
1655.532	-12.93	
1658.49	-7.63	
1661.447	-4.31	
1664.401	-10.28	
1667.353	-11.94	
1670.302	-11.94	
1673.25	-11.28	
1676.196	-11.28	
1679.139	-13.27	
1682.081	-5.31	
1685.02	-15.26	
1687.957	-12.27	
1690.893	-2.32	
1693.826	-12.27	
1696.757	-11.61	
1699.686	-9.29	
1702.612	-9.29	
1705.537	-4.97	
1708.46	-9.95	
1711.38	-8.62	
1714.299	-4.64	
1717.215	-7.63	
1720.13	-6.96	
1723.042	-7.63	
1725.952	-7.96	
1728.86	-7.96	
1731.767	-2.65	
1734.671	-6.3	
1737.573	-12.6	
1740.473	-13.27	
1743.37	-10.28	
1746.266	-7.63	
1749.16	-5.64	
1752.052	-5.31	
1754.942	-6.3	
1757.829	-7.63	
1760.715	-13.93	
1763.598	-5.97	
1766.48	-17.91	
1769.36	-7.63	
1772.237	-9.62	
1775.112	-10.61	
1777.986	-14.26	
1780.857	-8.95	
1783.727	-6.63	
1786.594	-9.95	
1789.459	-11.94	
1792.323	-8.29	
1795.184	-10.28	
1798.043	-11.28	
1800.9	-10.28	
1803.756	-6.3	
1806.609	-6.63	
1809.46	-9.62	
1812.309	-10.94	
1815.157	-11.28	
1818.002	-8.62	
1820.845	-10.94	
1823.686	-13.6	
1826.526	-6.96	
1829.363	-12.6	
1832.198	-7.96	
1835.031	-12.27	
1837.863	-13.27	
1840.692	-5.31	
1843.519	-10.94	
1846.345	-10.28	
1849.168	-10.61	
1851.989	-5.97	
1854.809	-10.94	
1857.626	-5.31	
1860.441	-7.3	
1863.255	-10.61	
1866.066	-9.95	
1868.876	-12.27	
1871.684	-11.61	
1874.489	-12.93	
1877.293	-14.59	
1880.095	-9.62	
1882.894	-9.29	
1885.692	-8.62	
1888.488	-6.96	
1891.282	-8.62	
1894.074	-5.97	
1896.864	-12.6	
1899.652	-8.95	
1902.438	-10.28	
1905.222	-3.98	
1908.004	-10.28	
1910.785	-6.96	
1913.563	-8.62	
1916.339	-9.95	
1919.114	-10.28	
1921.886	-13.6	
1924.657	-11.28	
1927.426	-9.95	
1930.193	-4.31	
1932.957	-7.63	
1935.72	-7.3	
1938.481	-8.62	
1941.24	-6.3	
1943.998	-5.97	
1946.753	-7.3	
1949.506	-8.62	
1952.258	-8.29	
1955.007	-7.96	
1957.755	-7.96	
1960.501	-6.96	
1963.245	-8.95	
1965.986	-8.62	
1968.726	-6.63	
1971.465	-6.63	
1974.201	-5.97	
1976.935	-7.96	
1979.668	-6.3	
1982.398	-2.32	
1985.127	-6.3	
1987.854	-8.29	
1990.579	-9.62	
1993.302	-5.31	
1996.023	-7.96	
1998.742	-7.3	
2001.46	-4.31	
2004.175	-4.97	
2006.889	-7.63	
2009.6	-7.63	
2012.31	-8.62	
2015.018	-7.63	
2017.725	-7.3	
2020.429	-6.96	
2023.131	-7.63	
2025.832	-5.31	
2028.531	-5.64	
2031.228	-4.31	
2033.923	-7.63	
2036.616	-7.3	
2039.307	-8.95	
2041.997	-3.65	
2044.684	-5.97	
2047.37	-0.33	
2050.054	-3.65	
2052.736	-2.32	
2055.416	-5.31	
2058.095	-6.63	
2060.771	-1.66	
2063.446	-3.65	
2066.119	-6.3	
2068.79	-2.98	
2071.459	-1.33	
2074.127	-4.31	
2076.792	-7.63	
2079.456	0.33	
2082.118	-4.31	
2084.778	-6.3	
2087.436	-4.97	
2090.093	-2.65	
2092.747	-5.97	
2095.4	-1.99	
2098.051	-2.32	
2100.7	-4.64	
2103.348	-1.99	
2105.993	-8.62	
2108.637	-4.64	
2111.279	-6.63	
2113.919	-5.31	
2116.558	-2.32	
2119.194	-6.96	
2121.829	-6.96	
2124.462	-4.64	
2127.093	-6.96	
2129.723	-3.65	
2132.35	-5.97	
2134.976	-5.64	
2137.6	-4.64	
2140.223	-3.65	
2142.843	-5.31	
2145.462	-2.65	
2148.079	-2.98	
2150.694	-5.64	
2153.307	-4.97	
2155.919	-8.29	
2158.528	-5.31	
2161.137	-3.65	
2163.743	-4.31	
2166.347	-1.66	
2168.95	-2.98	
2171.551	-0.66	
2174.15	-7.96	
2176.748	-4.97	
2179.343	-4.64	
2181.937	-2.65	
2184.529	-4.64	
2187.12	-5.31	
2189.708	-3.98	
2192.295	-2.98	
2194.88	-2.32	
2197.464	-2.32	
2200.045	-7.3	
2202.625	-5.31	
2205.203	-2.65	
2207.78	-6.3	
2210.355	-3.32	
2212.928	-4.97	
2215.499	-3.98	
2218.068	-5.97	
2220.636	-6.3	
2223.202	-3.98	
2225.766	-7.3	
2228.329	-1.33	
2230.889	-5.64	
2233.449	0.33	
2236.006	-0.66	
2238.562	-6.3	
2241.115	-6.63	
2243.668	-5.97	
2246.218	-3.65	
2248.767	-5.31	
2251.314	-0.99	
2253.859	-5.64	
2256.403	-2.65	
2258.945	-2.98	
2261.485	-6.63	
2264.023	-4.31	
2266.56	-3.98	
2269.095	-5.64	
2271.629	-4.64	
2274.16	-0.99	
2276.69	-3.32	
2279.219	-5.31	
2281.745	-5.31	
2284.27	-5.97	
2286.793	-4.31	
2289.315	-5.31	
2291.835	-4.97	
2294.353	-1.66	
2296.869	-1.66	
2299.384	-4.64	
2301.897	-2.98	
2304.408	-6.3	
2306.918	-0.66	
2309.426	-1.33	
2311.932	-9.29	
2314.437	-3.32	
2316.94	-8.29	
2319.441	-1.33	
2321.941	-5.97	
2324.439	-3.98	
2326.935	-5.97	
2329.43	-5.97	
2331.923	-2.98	
2334.414	-1.66	
2336.904	-5.97	
2339.392	-2.32	
2341.878	-4.31	
2344.363	-4.97	
2346.846	0.66	
2349.328	-6.3	
2351.807	-2.32	
2354.285	-4.64	
2356.762	-3.65	
2359.237	-2.98	
2361.71	-3.65	
2364.181	-3.32	
2366.651	-4.31	
2369.119	-0.66	
2371.586	-5.64	
2374.051	-2.65	
2376.514	-4.64	
2378.976	-4.31	
2381.436	-3.65	
2383.894	-6.63	
2386.351	-1.66	
2388.806	-7.3	
2391.259	-3.65	
2393.711	-2.98	
2396.161	-3.65	
2398.61	-8.95	
2401.057	-7.96	
2403.502	-5.97	
2405.946	-6.63	
2408.388	-11.61	
2410.829	-0.66	
2413.268	-5.97	
2415.705	-2.32	
2418.141	-6.63	
2420.575	-7.63	
2423.007	-5.64	
2425.438	-7.96	
2427.867	-4.97	
2430.295	-5.64	
2432.721	-3.98	
2435.145	-4.97	
2437.568	-6.63	
2439.989	-2.32	
2442.409	-2.32	
2444.827	-8.62	
2447.243	-2.98	
2449.658	-7.3	
2452.071	-7.96	
2454.483	-2.32	
2456.893	-5.64	
2459.302	-4.97	
2461.709	-6.63	
2464.114	-8.29	
2466.518	-5.64	
2468.92	-6.63	
2471.32	-2.98	
2473.719	-5.97	
2476.117	-5.31	
2478.512	-3.98	
2480.907	-10.28	
2483.299	-4.64	
2485.691	-3.98	
2488.08	-7.3	
2490.468	-5.64	
2492.854	-5.97	
2495.239	-3.65	
2497.623	-9.95	
2500.004	-2.32	
2502.384	-3.32	
2504.763	-7.63	
2507.14	-6.63	
2509.515	-7.3	
2511.889	-3.65	
2514.262	-5.64	
2516.633	-6.63	
2519.002	-5.31	
2521.369	-7.3	
2523.736	-8.29	
2526.1	-6.3	
2528.463	-6.96	
2530.825	-4.31	
2533.185	-6.63	
2535.543	-7.63	
2537.9	-4.64	
2540.255	-7.96	
2542.609	-8.95	
2544.961	-10.28	
2547.312	-5.97	
2549.661	-5.31	
2552.009	-7.63	
2554.355	-5.97	
2556.7	-5.31	
2559.043	-6.3	
2561.384	-2.32	
2563.724	-4.97	
2566.063	-8.29	
2568.4	-4.31	
2570.735	-7.3	
2573.069	-7.63	
2575.402	-4.64	
2577.733	-2.32	
2580.062	-6.96	
2582.39	-12.27	
2584.716	-7.63	
2587.041	-6.96	
2589.364	-9.29	
2591.686	-6.96	
2594.006	-7.63	
2596.325	-4.97	
2598.643	-6.96	
2600.958	-8.29	
2603.273	-3.65	
2605.585	-9.29	
2607.897	-5.31	
2610.206	-3.98	
2612.515	-7.63	
2614.822	-6.63	
2617.127	-6.96	
2619.431	-3.65	
2621.733	-8.95	
2624.034	-5.64	
2626.333	-7.96	
2628.631	-7.96	
2630.927	-3.65	
2633.222	-4.97	
2635.515	-6.3	
2637.807	-6.96	
2640.098	-7.3	
2642.387	-7.3	
2644.674	-6.96	
2646.96	-7.96	
2649.245	-3.65	
2651.528	0.33	
2653.809	-4.97	
2656.089	-1.99	
2658.368	-8.95	
2660.645	-7.63	
2662.921	-2.32	
2665.195	-5.97	
2667.468	-7.63	
2669.739	-5.97	
2672.009	-4.64	
2674.277	-3.98	
2676.544	-1.66	
2678.809	-4.97	
2681.073	-6.96	
2683.336	-4.64	
2685.597	-6.63	
2687.856	-3.65	
2690.115	-5.64	
2692.371	-2.65	
2694.626	-3.98	
2696.88	-6.3	
2699.133	-4.31	
2701.383	-1.99	
2703.633	-0	
2705.881	-2.32	
2708.127	-6.63	
2710.373	-3.32	
2712.616	-3.65	
2714.859	-1.99	
2717.099	-4.31	
2719.339	-3.65	
2721.577	0.33	
2723.813	-3.32	
2726.048	-4.31	
2728.282	0.33	
2730.514	-1.33	
2732.745	-0.66	
2734.974	-1.33	
2737.202	-1.99	
2739.428	0	
2741.653	1.66	
2743.877	1.33	
2746.099	-0.66	
2748.32	0.66	
2750.539	-3.98	
2752.757	-3.32	
2754.974	-0.99	
2757.189	2.32	
2759.403	-1.33	
2761.615	1.66	
2763.826	0.33	
2766.035	-1.66	
2768.243	0.33	
2770.45	1.33	
2772.655	1.99	
2774.859	-0.99	
2777.062	1.33	
2779.263	3.32	
2781.462	0	
2783.66	-0.66	
2785.857	-0.99	
2788.053	1.99	
2790.247	2.65	
2792.439	3.98	
2794.631	1.66	
2796.82	1.33	
2799.009	4.31	
2801.196	5.31	
2803.382	3.65	
2805.566	4.31	
2807.749	8.29	
2809.93	9.95	
2812.11	9.29	
2814.289	3.98	
2816.466	7.96	
2818.642	2.65	
2820.817	9.95	
2822.99	6.96	
2825.162	10.28	
2827.332	12.6	
2829.502	12.93	
2831.669	11.61	
2833.836	10.28	
2836	12.27	
2838.164	13.6	
2840.326	16.58	
2842.487	16.58	
2844.647	18.57	
2846.805	18.57	
2848.961	20.56	
2851.117	23.22	
2853.271	18.57	
2855.423	26.86	
2857.575	27.2	
2859.725	26.53	
2861.873	26.53	
2864.02	31.51	
2866.166	37.48	
2868.311	37.81	
2870.454	36.81	
2872.596	27.53	
2874.736	28.19	
2876.875	34.16	
2879.013	35.82	
2881.149	42.45	
2883.284	45.11	
2885.418	43.45	
2887.551	44.11	
2889.682	43.78	
2891.811	45.77	
2893.94	45.11	
2896.067	44.11	
2898.192	42.12	
2900.317	39.8	
2902.439	47.43	
2904.561	46.76	
2906.681	50.74	
2908.8	49.42	
2910.918	58.37	
2913.034	61.36	
2915.149	63.68	
2917.263	62.02	
2919.375	69.32	
2921.486	66	
2923.596	64.67	
2925.704	57.04	
2927.811	53.07	
2929.917	54.39	
2932.021	48.42	
2934.124	44.44	
2936.226	44.11	
2938.327	40.79	
2940.426	40.13	
2942.524	41.46	
2944.62	39.8	
2946.715	35.49	
2948.809	32.83	
2950.902	27.53	
2952.993	32.83	
2955.083	28.85	
2957.171	32.5	
2959.259	28.19	
2961.345	24.54	
2963.429	26.53	
2965.513	27.53	
2967.595	22.55	
2969.676	20.23	
2971.755	16.58	
2973.833	17.25	
2975.91	15.59	
2977.986	15.59	
2980.06	9.29	
2982.133	9.62	
2984.205	10.28	
2986.275	10.94	
2988.345	10.94	
2990.412	11.28	
2992.479	11.94	
2994.544	10.94	
2996.608	7.63	
2998.671	11.28	
3000.732	13.27	
3002.792	10.61	
3004.851	12.6	
3006.909	9.62	
3008.965	10.61	
3011.02	5.97	
3013.074	5.64	
3015.126	6.63	
3017.177	5.97	
3019.227	3.98	
3021.276	5.64	
3023.323	0.99	
3025.369	-0.66	
3027.414	3.32	
3029.458	8.29	
3031.5	0.33	
3033.541	-2.32	
3035.581	-0	
3037.619	0.99	
3039.656	3.32	
3041.692	-0	
3043.727	-0.99	
3045.76	-0.99	
3047.793	2.65	
3049.824	0.66	
3051.853	-1.33	
3053.882	2.32	
3055.909	0.33	
