RamanShift:204		
0.351	-557.83	
4.587	-79.06	
8.82	-29.97	
13.049	-22.01	
17.275	-12.06	
21.497	-7.75	
25.716	-5.43	
29.931	-5.43	
34.142	-4.1	
38.351	-3.77	
42.555	-3.44	
46.756	-3.77	
50.954	-5.1	
55.148	-2.45	
59.339	-0.79	
63.527	-1.78	
67.71	-1.12	
71.891	-1.78	
76.068	-0.79	
80.241	-0.46	
84.411	1.2	
88.578	0.21	
92.741	2.53	
96.901	-1.78	
101.057	-2.45	
105.21	2.2	
109.359	3.86	
113.505	2.53	
117.648	2.86	
121.787	2.86	
125.923	4.52	
130.055	6.18	
134.184	2.53	
138.31	9.16	
142.432	7.84	
146.551	12.15	
150.667	7.84	
154.779	11.82	
158.887	12.15	
162.993	14.14	
167.095	13.47	
171.193	14.8	
175.289	16.79	
179.381	14.14	
183.469	20.11	
187.554	13.81	
191.636	17.79	
195.715	19.44	
199.79	20.77	
203.862	16.46	
207.931	17.45	
211.996	18.45	
216.058	19.44	
220.116	17.79	
224.172	18.12	
228.224	21.77	
232.272	23.09	
236.318	21.43	
240.36	21.1	
244.399	20.11	
248.434	16.46	
252.466	23.09	
256.495	25.41	
260.521	23.42	
264.544	20.44	
268.563	26.41	
272.579	26.41	
276.591	26.08	
280.601	26.08	
284.607	30.06	
288.61	39.01	
292.609	47.97	
296.606	57.25	
300.599	57.58	
304.589	65.21	
308.575	48.96	
312.559	45.64	
316.539	44.32	
320.516	48.3	
324.49	46.97	
328.461	60.57	
332.428	61.23	
336.392	60.57	
340.353	53.27	
344.311	49.96	
348.266	37.68	
352.217	34.04	
356.165	23.09	
360.11	24.42	
364.052	21.1	
367.991	18.78	
371.926	23.42	
375.859	26.74	
379.788	27.07	
383.714	21.43	
387.637	17.12	
391.557	21.43	
395.473	12.15	
399.387	5.85	
403.297	7.17	
407.204	11.48	
411.108	12.48	
415.009	3.52	
418.907	4.19	
422.802	6.51	
426.693	5.51	
430.581	6.18	
434.467	7.5	
438.349	7.84	
442.228	8.17	
446.104	4.85	
449.977	7.84	
453.847	10.49	
457.713	4.85	
461.577	13.14	
465.438	17.45	
469.295	24.09	
473.149	25.74	
477.001	25.74	
480.849	24.42	
484.694	14.8	
488.536	14.8	
492.375	10.82	
496.211	15.46	
500.044	13.14	
503.874	10.82	
507.701	11.82	
511.525	18.78	
515.346	13.14	
519.163	18.12	
522.978	13.81	
526.79	8.83	
530.598	14.47	
534.404	10.16	
538.207	6.51	
542.006	1.53	
545.803	8.83	
549.596	3.86	
553.387	12.48	
557.175	4.52	
560.959	5.85	
564.741	5.18	
568.519	0.87	
572.295	5.51	
576.068	6.18	
579.837	8.5	
583.604	4.85	
587.368	2.86	
591.128	2.53	
594.886	4.19	
598.641	2.2	
602.393	2.2	
606.142	1.87	
609.887	6.18	
613.63	6.84	
617.37	12.81	
621.108	17.79	
624.842	29.06	
628.573	31.38	
632.301	36.03	
636.027	30.72	
639.749	30.06	
643.468	23.09	
647.185	26.08	
650.899	35.69	
654.609	49.96	
658.317	85.44	
662.022	136.19	
665.724	196.22	
669.423	218.78	
673.119	178.98	
676.813	120.6	
680.503	64.55	
684.191	49.96	
687.875	40.67	
691.557	39.34	
695.236	47.97	
698.912	53.94	
702.585	66.21	
706.256	57.25	
709.923	41.66	
713.588	30.72	
717.249	16.46	
720.908	10.49	
724.564	8.83	
728.217	9.83	
731.868	6.18	
735.515	11.48	
739.16	8.5	
742.801	4.52	
746.44	-3.11	
750.076	4.85	
753.71	3.52	
757.34	1.87	
760.968	4.85	
764.593	5.18	
768.215	7.5	
771.834	3.86	
775.45	7.84	
779.064	7.5	
782.675	7.17	
786.283	9.83	
789.888	15.8	
793.49	18.45	
797.09	20.11	
800.686	26.08	
804.281	28.4	
807.872	27.07	
811.46	35.69	
815.046	33.04	
818.629	43.99	
822.209	42.99	
825.786	42.66	
829.361	37.02	
832.933	37.02	
836.502	46.31	
840.068	57.92	
843.632	68.86	
847.193	85.78	
850.751	104.02	
854.306	123.92	
857.859	132.87	
861.409	126.24	
864.956	100.37	
868.5	92.08	
872.042	72.84	
875.581	61.56	
879.117	56.26	
882.651	46.64	
886.182	39.34	
889.71	29.72	
893.235	29.39	
896.758	17.12	
900.278	15.46	
903.795	15.46	
907.31	11.15	
910.822	12.48	
914.331	8.17	
917.838	17.45	
921.341	9.83	
924.843	9.83	
928.341	13.47	
931.837	14.14	
935.33	14.47	
938.821	10.49	
942.308	14.14	
945.793	17.45	
949.276	26.41	
952.756	21.43	
956.233	10.82	
959.707	13.81	
963.179	12.15	
966.649	7.5	
970.115	10.16	
973.579	12.48	
977.04	12.15	
980.499	17.79	
983.955	18.45	
987.408	20.44	
990.859	19.78	
994.307	31.71	
997.753	30.06	
1001.196	35.03	
1004.636	47.3	
1008.074	53.94	
1011.509	59.57	
1014.941	59.91	
1018.371	69.19	
1021.798	77.82	
1025.223	77.15	
1028.645	69.86	
1032.064	77.15	
1035.481	75.83	
1038.896	72.84	
1042.307	73.84	
1045.716	73.84	
1049.123	70.19	
1052.527	74.17	
1055.928	74.17	
1059.327	74.17	
1062.723	65.88	
1066.117	63.22	
1069.508	64.22	
1072.897	52.28	
1076.283	57.25	
1079.666	58.91	
1083.047	72.84	
1086.425	70.19	
1089.801	57.92	
1093.174	55.26	
1096.545	42	
1099.913	33.37	
1103.279	30.72	
1106.642	23.09	
1110.002	18.12	
1113.36	22.1	
1116.716	17.79	
1120.069	22.1	
1123.419	10.16	
1126.767	15.8	
1130.113	12.15	
1133.456	16.13	
1136.796	19.44	
1140.134	15.13	
1143.47	9.16	
1146.802	6.51	
1150.133	4.52	
1153.461	6.84	
1156.786	5.18	
1160.109	-0.12	
1163.43	5.85	
1166.748	3.86	
1170.063	5.18	
1173.376	5.85	
1176.687	8.5	
1179.995	5.85	
1183.3	4.85	
1186.603	8.83	
1189.904	8.5	
1193.202	15.8	
1196.498	14.8	
1199.791	17.12	
1203.082	15.8	
1206.37	12.48	
1209.656	17.79	
1212.94	15.8	
1216.221	17.45	
1219.499	18.12	
1222.775	20.77	
1226.049	18.12	
1229.32	19.11	
1232.589	24.09	
1235.856	24.75	
1239.12	31.05	
1242.381	26.08	
1245.64	27.07	
1248.897	29.39	
1252.151	35.7	
1255.403	36.36	
1258.652	34.37	
1261.9	45.31	
1265.144	44.98	
1268.386	42.99	
1271.626	38.68	
1274.864	45.65	
1278.099	40.01	
1281.331	41	
1284.562	41.33	
1287.789	29.06	
1291.015	35.36	
1294.238	23.09	
1297.459	18.78	
1300.677	25.41	
1303.893	18.78	
1307.106	19.11	
1310.318	16.13	
1313.526	10.16	
1316.733	6.84	
1319.937	12.81	
1323.139	-2.45	
1326.338	14.14	
1329.535	14.47	
1332.73	5.85	
1335.922	10.82	
1339.112	1.2	
1342.3	11.82	
1345.485	11.15	
1348.668	11.82	
1351.848	6.18	
1355.027	7.5	
1358.203	6.18	
1361.376	2.53	
1364.547	8.83	
1367.716	7.5	
1370.883	11.15	
1374.047	8.5	
1377.209	10.16	
1380.369	12.81	
1383.526	15.13	
1386.681	9.83	
1389.834	14.47	
1392.984	17.79	
1396.132	18.45	
1399.278	19.11	
1402.421	22.43	
1405.562	34.04	
1408.701	38.68	
1411.838	40.01	
1414.972	40.67	
1418.104	42.33	
1421.234	32.71	
1424.361	35.03	
1427.486	28.07	
1430.609	28.73	
1433.73	27.4	
1436.848	33.04	
1439.964	33.71	
1443.078	45.65	
1446.189	48.63	
1449.299	60.9	
1452.405	66.54	
1455.51	66.54	
1458.613	70.19	
1461.713	60.24	
1464.811	51.95	
1467.906	51.95	
1471	31.05	
1474.091	29.73	
1477.18	22.1	
1480.267	13.14	
1483.351	5.85	
1486.433	3.52	
1489.513	1.87	
1492.591	-2.11	
1495.666	-4.1	
1498.74	-8.75	
1501.811	-4.1	
1504.879	-4.77	
1507.946	-5.76	
1511.01	-7.09	
1514.073	-6.43	
1517.132	-13.06	
1520.19	-7.09	
1523.246	-4.44	
1526.299	-11.4	
1529.35	-8.08	
1532.399	-6.76	
1535.446	-8.08	
1538.49	-7.75	
1541.532	-10.41	
1544.572	-12.4	
1547.61	-13.39	
1550.646	-11.07	
1553.68	-12.73	
1556.711	-11.73	
1559.74	-11.07	
1562.767	-8.75	
1565.792	-9.08	
1568.814	-11.73	
1571.835	-3.77	
1574.853	-7.09	
1577.869	-12.73	
1580.883	-11.73	
1583.895	-10.74	
1586.904	-11.4	
1589.912	-9.74	
1592.917	-7.09	
1595.92	-9.74	
1598.921	-8.08	
1601.92	-12.4	
1604.917	-11.73	
1607.911	-10.74	
1610.903	-10.07	
1613.894	-11.4	
1616.882	-13.06	
1619.868	-12.06	
1622.851	-11.07	
1625.833	-11.73	
1628.812	-12.06	
1631.79	-10.07	
1634.765	-10.74	
1637.738	-8.08	
1640.709	-14.05	
1643.678	-9.74	
1646.645	-16.38	
1649.609	-13.39	
1652.572	-11.4	
1655.532	-15.05	
1658.49	-11.07	
1661.447	-9.74	
1664.401	-10.41	
1667.353	-11.07	
1670.302	-16.38	
1673.25	-14.72	
1676.196	-13.06	
1679.139	-12.06	
1682.081	-10.07	
1685.02	-14.72	
1687.957	-14.72	
1690.893	-7.75	
1693.826	-16.04	
1696.757	-9.08	
1699.686	-10.74	
1702.612	-7.42	
1705.537	-2.11	
1708.46	-12.06	
1711.38	-12.4	
1714.299	-10.41	
1717.215	-10.74	
1720.13	-8.42	
1723.042	-8.08	
1725.952	-9.41	
1728.86	-12.06	
1731.767	-9.08	
1734.671	-6.09	
1737.573	-14.05	
1740.473	-12.4	
1743.37	-12.06	
1746.266	-8.08	
1749.16	-10.07	
1752.052	-11.4	
1754.942	-7.75	
1757.829	-10.41	
1760.715	-11.07	
1763.598	-11.73	
1766.48	-10.74	
1769.36	-9.74	
1772.237	-11.07	
1775.112	-13.06	
1777.986	-13.39	
1780.857	-10.07	
1783.727	-9.41	
1786.594	-12.73	
1789.459	-14.72	
1792.323	-15.05	
1795.184	-9.41	
1798.043	-11.07	
1800.9	-14.05	
1803.756	-12.06	
1806.609	-10.41	
1809.46	-10.07	
1812.309	-9.41	
1815.157	-14.05	
1818.002	-8.08	
1820.845	-11.07	
1823.686	-10.07	
1826.526	-7.09	
1829.363	-9.74	
1832.198	-10.07	
1835.031	-16.38	
1837.863	-13.06	
1840.692	-9.41	
1843.519	-14.39	
1846.345	-14.05	
1849.168	-10.74	
1851.989	-10.07	
1854.809	-10.07	
1857.626	-9.41	
1860.441	-12.73	
1863.255	-12.4	
1866.066	-10.07	
1868.876	-9.74	
1871.684	-9.41	
1874.489	-15.71	
1877.293	-13.39	
1880.095	-13.06	
1882.894	-12.73	
1885.692	-13.39	
1888.488	-10.74	
1891.282	-4.44	
1894.074	-11.73	
1896.864	-11.07	
1899.652	-12.4	
1902.438	-14.39	
1905.222	-9.74	
1908.004	-14.72	
1910.785	-9.41	
1913.563	-9.74	
1916.339	-11.73	
1919.114	-18.37	
1921.886	-14.72	
1924.657	-14.05	
1927.426	-12.4	
1930.193	-8.75	
1932.957	-9.41	
1935.72	-13.06	
1938.481	-7.42	
1941.24	-10.41	
1943.998	-10.41	
1946.753	-10.74	
1949.506	-13.72	
1952.258	-11.4	
1955.007	-8.75	
1957.755	-9.08	
1960.501	-8.08	
1963.245	-9.41	
1965.986	-6.43	
1968.726	-9.41	
1971.465	-11.73	
1974.201	-7.75	
1976.935	-8.08	
1979.668	-11.4	
1982.398	-5.76	
1985.127	-9.74	
1987.854	-8.42	
1990.579	-6.09	
1993.302	-7.09	
1996.023	-8.75	
1998.742	-8.08	
2001.46	-5.43	
2004.175	-8.42	
2006.889	-8.08	
2009.6	-10.07	
2012.31	-6.76	
2015.018	-6.76	
2017.725	-7.75	
2020.429	-3.77	
2023.131	-7.75	
2025.832	-4.77	
2028.531	-8.75	
2031.228	-5.43	
2033.923	-5.76	
2036.616	-8.75	
2039.307	-5.43	
2041.997	-7.09	
2044.684	-6.09	
2047.37	-3.44	
2050.054	-3.44	
2052.736	-6.76	
2055.416	-4.1	
2058.095	-8.75	
2060.771	-3.44	
2063.446	-7.75	
2066.119	-6.43	
2068.79	-7.42	
2071.459	-3.11	
2074.127	-4.1	
2076.792	-5.43	
2079.456	-6.09	
2082.118	-7.09	
2084.778	-6.43	
2087.436	-4.44	
2090.093	-4.77	
2092.747	-7.09	
2095.4	-6.43	
2098.051	-2.11	
2100.7	-4.1	
2103.348	-5.1	
2105.993	-6.09	
2108.637	-6.76	
2111.279	-10.41	
2113.919	-4.44	
2116.558	1.2	
2119.194	-6.76	
2121.829	-4.1	
2124.462	-6.43	
2127.093	-5.76	
2129.723	-7.09	
2132.35	-3.44	
2134.976	-7.42	
2137.6	-4.77	
2140.223	-2.11	
2142.843	-7.75	
2145.462	-4.77	
2148.079	-3.77	
2150.694	-5.43	
2153.307	-6.43	
2155.919	-5.43	
2158.528	-5.1	
2161.137	-8.08	
2163.743	-3.77	
2166.347	-5.1	
2168.95	-1.45	
2171.551	-5.1	
2174.15	-7.09	
2176.748	-7.75	
2179.343	-5.1	
2181.937	0.54	
2184.529	-4.1	
2187.12	-3.77	
2189.708	-1.12	
2192.295	-1.78	
2194.88	-3.44	
2197.464	-3.44	
2200.045	-6.43	
2202.625	-4.44	
2205.203	-2.11	
2207.78	-5.43	
2210.355	-4.1	
2212.928	-5.1	
2215.499	-5.76	
2218.068	-5.1	
2220.636	-2.78	
2223.202	-2.78	
2225.766	-5.76	
2228.329	-2.78	
2230.889	-3.44	
2233.449	-1.45	
2236.006	-3.44	
2238.562	-3.44	
2241.115	-4.44	
2243.668	-5.43	
2246.218	-2.78	
2248.767	-4.77	
2251.314	-3.77	
2253.859	-1.78	
2256.403	-3.11	
2258.945	-1.78	
2261.485	-6.76	
2264.023	-4.1	
2266.56	-2.78	
2269.095	-7.75	
2271.629	-3.44	
2274.16	-1.78	
2276.69	-4.1	
2279.219	-2.11	
2281.745	-2.45	
2284.27	-3.44	
2286.793	-1.78	
2289.315	-3.77	
2291.835	-7.09	
2294.353	-4.1	
2296.869	-1.45	
2299.384	-1.12	
2301.897	-3.11	
2304.408	-1.12	
2306.918	-3.44	
2309.426	-5.1	
2311.932	-8.75	
2314.437	-0.46	
2316.94	-7.75	
2319.441	-2.11	
2321.941	-6.76	
2324.439	-3.44	
2326.935	-2.45	
2329.43	-7.42	
2331.923	-5.76	
2334.414	-0.79	
2336.904	-5.1	
2339.392	-4.44	
2341.878	-1.45	
2344.363	-7.09	
2346.846	4.19	
2349.328	-5.43	
2351.807	-3.77	
2354.285	-4.1	
2356.762	-3.44	
2359.237	-3.77	
2361.71	-4.44	
2364.181	-5.43	
2366.651	-5.76	
2369.119	0.87	
2371.586	-5.43	
2374.051	-3.77	
2376.514	-5.43	
2378.976	-1.78	
2381.436	-2.11	
2383.894	-2.78	
2386.351	-5.43	
2388.806	-7.42	
2391.259	-3.77	
2393.711	-6.09	
2396.161	-5.1	
2398.61	-2.45	
2401.057	-11.07	
2403.502	-5.1	
2405.946	-5.1	
2408.388	-10.74	
2410.829	-2.45	
2413.268	-7.75	
2415.705	-4.1	
2418.141	-7.75	
2420.575	-7.42	
2423.007	-5.76	
2425.438	-7.75	
2427.867	-2.45	
2430.295	-3.77	
2432.721	-2.78	
2435.145	-3.77	
2437.568	-5.76	
2439.989	-5.1	
2442.409	-2.78	
2444.827	-5.43	
2447.243	-5.1	
2449.658	-6.43	
2452.071	-4.44	
2454.483	-3.44	
2456.893	-6.09	
2459.302	-3.11	
2461.709	-8.42	
2464.114	-5.76	
2466.518	-4.44	
2468.92	-3.77	
2471.32	-4.1	
2473.719	-5.76	
2476.117	-5.76	
2478.512	-4.44	
2480.907	-7.75	
2483.299	-2.11	
2485.691	-4.77	
2488.08	-7.75	
2490.468	-0.46	
2492.854	-4.1	
2495.239	-8.42	
2497.623	-7.75	
2500.004	-2.45	
2502.384	0.87	
2504.763	-3.11	
2507.14	-4.1	
2509.515	-8.08	
2511.889	-2.45	
2514.262	-5.76	
2516.633	-5.76	
2519.002	-2.11	
2521.369	-6.09	
2523.736	-6.76	
2526.1	-2.78	
2528.463	-3.44	
2530.825	-8.75	
2533.185	-6.09	
2535.543	-6.76	
2537.9	-7.09	
2540.255	-2.45	
2542.609	-6.09	
2544.961	-11.07	
2547.312	-6.09	
2549.661	-3.77	
2552.009	-6.09	
2554.355	-8.42	
2556.7	-1.12	
2559.043	-4.44	
2561.384	-1.78	
2563.724	-8.08	
2566.063	-5.76	
2568.4	-6.76	
2570.735	-6.43	
2573.069	-3.44	
2575.402	-6.43	
2577.733	-2.45	
2580.062	-6.43	
2582.39	-9.74	
2584.716	-9.08	
2587.041	-7.09	
2589.364	-8.75	
2591.686	-4.1	
2594.006	-7.75	
2596.325	-0.12	
2598.643	-8.42	
2600.958	-7.42	
2603.273	-6.43	
2605.585	-8.75	
2607.897	-4.44	
2610.206	-6.09	
2612.515	-8.08	
2614.822	-6.76	
2617.127	-6.09	
2619.431	-4.44	
2621.733	-4.1	
2624.034	-5.43	
2626.333	-4.44	
2628.631	-4.1	
2630.927	-5.76	
2633.222	-4.77	
2635.515	-6.09	
2637.807	-8.08	
2640.098	-4.77	
2642.387	-5.1	
2644.674	-8.42	
2646.96	-7.42	
2649.245	-3.11	
2651.528	-1.12	
2653.809	-3.77	
2656.089	-5.43	
2658.368	-4.44	
2660.645	-4.44	
2662.921	-4.1	
2665.195	-4.44	
2667.468	-5.76	
2669.739	-3.44	
2672.009	-4.1	
2674.277	-0.46	
2676.544	-0.79	
2678.809	0.54	
2681.073	-2.78	
2683.336	-1.78	
2685.597	-4.44	
2687.856	-3.44	
2690.115	-4.77	
2692.371	-1.12	
2694.626	-1.45	
2696.88	-1.12	
2699.133	-4.44	
2701.383	0.54	
2703.633	0.87	
2705.881	1.2	
2708.127	-2.78	
2710.373	-3.11	
2712.616	-0.12	
2714.859	2.2	
2717.099	-0.12	
2719.339	0.87	
2721.577	2.53	
2723.813	0.21	
2726.048	-2.78	
2728.282	1.87	
2730.514	-4.44	
2732.745	2.2	
2734.974	3.86	
2737.202	-0.46	
2739.428	5.51	
2741.653	1.87	
2743.877	3.52	
2746.099	-0.79	
2748.32	3.19	
2750.539	-3.11	
2752.757	1.53	
2754.974	-1.12	
2757.189	3.19	
2759.403	0.54	
2761.615	7.5	
2763.826	7.5	
2766.035	3.52	
2768.243	4.85	
2770.45	3.86	
2772.655	5.18	
2774.859	7.84	
2777.062	5.51	
2779.263	3.86	
2781.462	5.51	
2783.66	1.87	
2785.857	2.86	
2788.053	6.18	
2790.247	3.52	
2792.439	8.5	
2794.631	2.2	
2796.82	9.83	
2799.009	8.5	
2801.196	11.82	
2803.382	11.82	
2805.566	11.82	
2807.749	15.13	
2809.93	12.48	
2812.11	14.8	
2814.289	11.82	
2816.466	14.8	
2818.642	14.8	
2820.817	15.46	
2822.99	14.47	
2825.162	17.45	
2827.332	21.1	
2829.502	20.44	
2831.669	27.07	
2833.836	25.08	
2836	23.75	
2838.164	30.06	
2840.326	26.41	
2842.487	27.73	
2844.647	31.71	
2846.805	32.71	
2848.961	30.72	
2851.117	35.03	
2853.271	30.72	
2855.423	35.69	
2857.575	36.69	
2859.725	42	
2861.873	42.66	
2864.02	41	
2866.166	44.65	
2868.311	49.96	
2870.454	47.97	
2872.596	40.67	
2874.736	42.66	
2876.875	48.63	
2879.013	49.96	
2881.149	49.96	
2883.284	49.96	
2885.418	50.62	
2887.551	47.63	
2889.682	48.3	
2891.811	48.3	
2893.94	48.63	
2896.067	45.64	
2898.192	49.62	
2900.317	46.97	
2902.439	48.3	
2904.561	49.29	
2906.681	53.27	
2908.8	50.62	
2910.918	56.92	
2913.034	61.56	
2915.149	66.21	
2917.263	60.9	
2919.375	61.56	
2921.486	63.22	
2923.596	61.9	
2925.704	55.59	
2927.811	49.29	
2929.917	50.62	
2932.021	50.62	
2934.124	44.32	
2936.226	43.99	
2938.327	46.64	
2940.426	39.34	
2942.524	37.68	
2944.62	40.67	
2946.715	34.7	
2948.809	34.7	
2950.902	30.72	
2952.993	30.72	
2955.083	32.71	
2957.171	31.71	
2959.259	28.73	
2961.345	28.4	
2963.429	22.76	
2965.513	23.75	
2967.595	21.76	
2969.676	20.11	
2971.755	14.14	
2973.833	16.79	
2975.91	13.81	
2977.986	14.14	
2980.06	9.83	
2982.133	7.84	
2984.205	12.48	
2986.275	10.49	
2988.345	10.16	
2990.412	11.15	
2992.479	12.48	
2994.544	12.81	
2996.608	7.5	
2998.671	12.15	
3000.732	13.14	
3002.792	8.83	
3004.851	10.49	
3006.909	9.83	
3008.965	8.83	
3011.02	2.2	
3013.074	5.85	
3015.126	5.85	
3017.177	3.52	
3019.227	2.53	
3021.276	1.87	
3023.323	1.2	
3025.369	0.54	
3027.414	2.53	
3029.458	5.85	
3031.5	1.87	
3033.541	-0.12	
3035.581	-2.45	
3037.619	-3.11	
3039.656	1.87	
3041.692	-1.45	
3043.727	-1.45	
3045.76	-2.11	
3047.793	-1.45	
3049.824	-0.12	
3051.853	-1.45	
3053.882	1.53	
3055.909	-0.12	
