RamanShift:204		
0.351	-66.9	
4.587	-23.09	
8.82	-16.13	
13.049	-12.15	
17.275	-7.84	
21.497	-5.18	
25.716	-6.51	
29.931	-6.84	
34.142	-5.18	
38.351	-4.19	
42.555	-4.52	
46.756	-2.2	
50.954	-5.18	
55.148	-4.85	
59.339	0.46	
63.527	-2.86	
67.71	-0.87	
71.891	-1.87	
76.068	-3.19	
80.241	-0.54	
84.411	1.12	
88.578	0.12	
92.741	1.12	
96.901	-1.53	
101.057	-2.53	
105.21	3.44	
109.359	3.44	
113.505	2.78	
117.648	4.44	
121.787	3.44	
125.923	6.76	
130.055	10.41	
134.184	5.43	
138.31	9.41	
142.432	7.09	
146.551	12.4	
150.667	9.74	
154.779	17.37	
158.887	12.06	
162.993	15.05	
167.095	19.36	
171.193	17.04	
175.289	22.01	
179.381	21.68	
183.469	25.33	
187.554	27.98	
191.636	23.67	
195.715	23.01	
199.79	25.66	
203.862	23.01	
207.931	24	
211.996	25	
216.058	34.29	
220.116	27.65	
224.172	23.67	
228.224	27.32	
232.272	28.32	
236.318	25.99	
240.36	31.63	
244.399	29.97	
248.434	28.65	
252.466	28.32	
256.495	29.97	
260.521	28.98	
264.544	28.65	
268.563	31.3	
272.579	31.3	
276.591	30.97	
280.601	34.62	
284.607	38.93	
288.61	49.21	
292.609	55.51	
296.606	65.46	
300.599	73.75	
304.589	77.4	
308.575	63.47	
312.559	52.86	
316.539	55.51	
320.516	55.18	
324.49	65.46	
328.461	74.08	
332.428	79.72	
336.392	77.07	
340.353	60.49	
344.311	67.45	
348.266	46.23	
352.217	45.23	
356.165	36.94	
360.11	27.65	
364.052	36.61	
367.991	29.97	
371.926	33.29	
375.859	35.61	
379.788	38.27	
383.714	40.26	
387.637	33.62	
391.557	32.3	
395.473	22.68	
399.387	19.03	
403.297	17.04	
407.204	19.69	
411.108	23.01	
415.009	18.7	
418.907	11.4	
422.802	17.37	
426.693	17.04	
430.581	13.72	
434.467	15.71	
438.349	13.39	
442.228	14.05	
446.104	11.73	
449.977	13.06	
453.847	16.38	
457.713	17.7	
461.577	17.04	
465.438	25.66	
469.295	35.61	
473.149	32.63	
477.001	35.28	
480.849	29.31	
484.694	23.34	
488.536	19.69	
492.375	17.7	
496.211	21.68	
500.044	19.03	
503.874	18.7	
507.701	24	
511.525	27.98	
515.346	22.01	
519.163	29.31	
522.978	24.34	
526.79	18.7	
530.598	19.69	
534.404	15.38	
538.207	16.38	
542.006	9.74	
545.803	18.37	
549.596	11.73	
553.387	18.03	
557.175	16.04	
560.959	17.7	
564.741	12.06	
568.519	10.07	
572.295	8.08	
576.068	13.39	
579.837	13.72	
583.604	12.73	
587.368	13.06	
591.128	13.72	
594.886	10.74	
598.641	11.07	
602.393	13.72	
606.142	9.74	
609.887	15.05	
613.63	10.41	
617.37	12.06	
621.108	16.04	
624.842	16.04	
628.573	21.02	
632.301	22.35	
636.027	25.33	
639.749	26.99	
643.468	25	
647.185	30.64	
650.899	45.23	
654.609	60.82	
658.317	101.61	
662.022	170.27	
665.724	226.65	
669.423	255.84	
673.119	209.41	
676.813	139.09	
680.503	78.73	
684.191	57.17	
687.875	49.54	
691.557	48.22	
695.236	67.78	
698.912	77.4	
702.585	84.7	
706.256	76.07	
709.923	59.49	
713.588	45.89	
717.249	27.32	
720.908	23.67	
724.564	17.7	
728.217	17.04	
731.868	16.04	
735.515	15.05	
739.16	15.05	
742.801	12.06	
746.44	8.42	
750.076	13.72	
753.71	10.41	
757.34	5.1	
760.968	8.75	
764.593	15.05	
768.215	16.04	
771.834	7.42	
775.45	17.04	
779.064	15.05	
782.675	11.73	
786.283	20.36	
789.888	24.34	
793.49	21.68	
797.09	25.99	
800.686	34.62	
804.281	32.3	
807.872	36.28	
811.46	31.3	
815.046	29.64	
818.629	37.27	
822.209	40.26	
825.786	38.27	
829.361	41.58	
832.933	45.89	
836.502	58.16	
840.068	67.45	
843.632	84.03	
847.193	102.61	
850.751	127.82	
854.306	150.04	
857.859	160.98	
861.409	152.36	
864.956	139.42	
868.5	108.25	
872.042	93.32	
875.581	80.05	
879.117	75.74	
882.651	63.8	
886.182	57.17	
889.71	42.25	
893.235	39.92	
896.758	28.98	
900.278	26.99	
903.795	22.35	
907.31	22.35	
910.822	24	
914.331	15.38	
917.838	24	
921.341	16.38	
924.843	16.38	
928.341	24	
931.837	21.35	
935.33	21.35	
938.821	18.7	
942.308	24.67	
945.793	34.95	
949.276	40.59	
952.756	29.97	
956.233	22.35	
959.707	21.68	
963.179	14.72	
966.649	14.39	
970.115	16.71	
973.579	15.71	
977.04	20.02	
980.499	16.38	
983.955	22.35	
987.408	18.37	
990.859	24.34	
994.307	36.94	
997.753	35.61	
1001.196	49.21	
1004.636	55.51	
1008.074	59.82	
1011.509	68.11	
1014.941	74.42	
1018.371	82.71	
1021.798	85.03	
1025.223	87.68	
1028.645	90.34	
1032.064	87.68	
1035.481	87.68	
1038.896	90.34	
1042.307	83.7	
1045.716	87.68	
1049.123	79.39	
1052.527	88.68	
1055.928	91.33	
1059.327	89.67	
1062.723	81.38	
1066.117	88.35	
1069.508	70.77	
1072.897	69.11	
1076.283	72.76	
1079.666	82.05	
1083.047	86.02	
1086.425	86.03	
1089.801	77.4	
1093.174	73.09	
1096.545	60.82	
1099.913	37.27	
1103.279	47.88	
1106.642	34.62	
1110.002	33.29	
1113.36	36.28	
1116.716	30.64	
1120.069	30.31	
1123.419	29.97	
1126.767	33.62	
1130.113	29.97	
1133.456	24.67	
1136.796	28.98	
1140.134	23.34	
1143.47	19.36	
1146.802	17.7	
1150.133	18.37	
1153.461	15.71	
1156.786	16.71	
1160.109	6.76	
1163.43	13.72	
1166.748	14.72	
1170.063	16.04	
1173.376	16.38	
1176.687	24	
1179.995	20.69	
1183.3	13.39	
1186.603	18.03	
1189.904	22.68	
1193.202	25.33	
1196.498	26.33	
1199.791	27.98	
1203.082	27.32	
1206.37	26.99	
1209.656	31.63	
1212.94	32.3	
1216.221	27.65	
1219.499	28.98	
1222.775	32.63	
1226.049	32.63	
1229.32	39.26	
1232.589	38.27	
1235.856	39.26	
1239.12	46.23	
1242.381	47.88	
1245.64	49.87	
1248.897	50.87	
1252.151	50.54	
1255.403	56.84	
1258.652	53.19	
1261.9	62.81	
1265.144	60.49	
1268.386	62.81	
1271.626	62.48	
1274.864	68.12	
1278.099	64.14	
1281.331	59.16	
1284.562	63.8	
1287.789	51.86	
1291.015	57.17	
1294.238	47.22	
1297.459	43.57	
1300.677	49.21	
1303.893	39.26	
1307.106	39.59	
1310.318	38.93	
1313.526	37.93	
1316.733	31.63	
1319.937	33.95	
1323.139	21.68	
1326.338	40.59	
1329.535	33.95	
1332.73	32.96	
1335.922	35.94	
1339.112	29.31	
1342.3	29.31	
1345.485	32.63	
1348.668	33.29	
1351.848	31.63	
1355.027	31.96	
1358.203	36.94	
1361.376	25	
1364.547	36.61	
1367.716	31.3	
1370.883	39.92	
1374.047	38.27	
1377.209	35.28	
1380.369	34.29	
1383.526	36.61	
1386.681	37.93	
1389.834	42.91	
1392.984	41.91	
1396.132	43.24	
1399.278	38.6	
1402.421	48.55	
1405.562	54.85	
1408.701	64.47	
1411.838	62.48	
1414.972	64.14	
1418.104	63.47	
1421.234	55.18	
1424.361	57.5	
1427.486	48.55	
1430.609	50.54	
1433.73	57.17	
1436.848	54.52	
1439.964	64.47	
1443.078	76.41	
1446.189	81.05	
1449.299	91	
1452.405	99.96	
1455.51	101.61	
1458.613	98.96	
1461.713	100.95	
1464.811	80.39	
1467.906	84.7	
1471	69.77	
1474.091	55.84	
1477.18	47.88	
1480.267	35.61	
1483.351	25.66	
1486.433	25.66	
1489.513	25	
1492.591	19.03	
1495.666	16.71	
1498.74	14.39	
1501.811	13.06	
1504.879	13.72	
1507.946	14.39	
1511.01	18.37	
1514.073	15.71	
1517.132	7.42	
1520.19	11.07	
1523.246	14.05	
1526.299	6.76	
1529.35	7.75	
1532.399	13.06	
1535.446	12.73	
1538.49	8.75	
1541.532	7.09	
1544.572	9.08	
1547.61	6.76	
1550.646	6.09	
1553.68	3.11	
1556.711	6.76	
1559.74	6.09	
1562.767	4.77	
1565.792	6.09	
1568.814	3.11	
1571.835	11.4	
1574.853	4.77	
1577.869	6.43	
1580.883	-0.21	
1583.895	6.09	
1586.904	1.78	
1589.912	6.76	
1592.917	6.76	
1595.92	5.76	
1598.921	4.1	
1601.92	4.44	
1604.917	2.45	
1607.911	4.1	
1610.903	2.78	
1613.894	0.46	
1616.882	4.1	
1619.868	1.45	
1622.851	3.11	
1625.833	1.45	
1628.812	2.45	
1631.79	5.1	
1634.765	0.79	
1637.738	3.77	
1640.709	1.78	
1643.678	0.46	
1646.645	-0.54	
1649.609	6.43	
1652.572	2.11	
1655.532	2.78	
1658.49	0.79	
1661.447	4.44	
1664.401	2.11	
1667.353	0.79	
1670.302	-3.19	
1673.25	1.45	
1676.196	-5.18	
1679.139	0.79	
1682.081	5.1	
1685.02	-2.86	
1687.957	-2.86	
1690.893	0.46	
1693.826	-2.53	
1696.757	-0.54	
1699.686	-0.21	
1702.612	2.11	
1705.537	5.76	
1708.46	1.78	
1711.38	2.78	
1714.299	1.78	
1717.215	1.45	
1720.13	-0.87	
1723.042	2.11	
1725.952	1.78	
1728.86	-1.2	
1731.767	4.1	
1734.671	4.1	
1737.573	-0.87	
1740.473	-5.85	
1743.37	-1.53	
1746.266	0.12	
1749.16	-0.87	
1752.052	-0.54	
1754.942	5.43	
1757.829	-2.2	
1760.715	-2.2	
1763.598	4.44	
1766.48	1.12	
1769.36	1.12	
1772.237	2.11	
1775.112	-1.53	
1777.986	0.46	
1780.857	0.46	
1783.727	0.79	
1786.594	-2.86	
1789.459	-0.87	
1792.323	-3.86	
1795.184	-2.86	
1798.043	1.12	
1800.9	-3.52	
1803.756	2.45	
1806.609	1.78	
1809.46	-2.53	
1812.309	-4.52	
1815.157	-5.51	
1818.002	-1.87	
1820.845	-1.87	
1823.686	-2.53	
1826.526	-3.52	
1829.363	-3.86	
1832.198	-2.53	
1835.031	-5.51	
1837.863	-4.52	
1840.692	-1.87	
1843.519	-4.52	
1846.345	-0.87	
1849.168	-0.87	
1851.989	2.45	
1854.809	-3.19	
1857.626	-3.19	
1860.441	1.78	
1863.255	0.12	
1866.066	-4.85	
1868.876	-1.2	
1871.684	-0.87	
1874.489	-9.16	
1877.293	-6.18	
1880.095	-6.51	
1882.894	-4.52	
1885.692	-5.85	
1888.488	-3.52	
1891.282	0.46	
1894.074	-1.53	
1896.864	-6.18	
1899.652	-0.87	
1902.438	-5.51	
1905.222	-0.21	
1908.004	-4.52	
1910.785	-0.54	
1913.563	3.11	
1916.339	-0.21	
1919.114	-1.2	
1921.886	-7.17	
1924.657	-5.85	
1927.426	-4.19	
1930.193	0.46	
1932.957	-0.87	
1935.72	-3.86	
1938.481	-3.86	
1941.24	-1.2	
1943.998	-5.85	
1946.753	-5.18	
1949.506	-5.51	
1952.258	-4.85	
1955.007	-2.86	
1957.755	-2.2	
1960.501	2.11	
1963.245	-4.52	
1965.986	-3.52	
1968.726	-1.87	
1971.465	-3.52	
1974.201	-5.18	
1976.935	-4.52	
1979.668	-3.19	
1982.398	-0.54	
1985.127	-3.86	
1987.854	-6.51	
1990.579	-2.2	
1993.302	-4.19	
1996.023	-5.85	
1998.742	-2.53	
2001.46	0.12	
2004.175	-2.53	
2006.889	-3.86	
2009.6	-3.19	
2012.31	-3.19	
2015.018	-3.52	
2017.725	-5.18	
2020.429	0.12	
2023.131	-5.85	
2025.832	-0.87	
2028.531	-4.85	
2031.228	-1.2	
2033.923	-2.53	
2036.616	-5.18	
2039.307	-3.52	
2041.997	-2.53	
2044.684	-2.86	
2047.37	0.46	
2050.054	-0.87	
2052.736	1.45	
2055.416	-5.18	
2058.095	-5.85	
2060.771	0.79	
2063.446	-2.86	
2066.119	-1.53	
2068.79	1.12	
2071.459	0.12	
2074.127	-1.87	
2076.792	0.46	
2079.456	-3.86	
2082.118	-2.53	
2084.778	-3.52	
2087.436	-1.53	
2090.093	-0.54	
2092.747	-1.53	
2095.4	-2.86	
2098.051	-2.2	
2100.7	-4.52	
2103.348	-0.54	
2105.993	-5.85	
2108.637	-3.86	
2111.279	-3.19	
2113.919	-1.2	
2116.558	0.79	
2119.194	-2.86	
2121.829	-2.2	
2124.462	0.46	
2127.093	-2.86	
2129.723	-1.2	
2132.35	-0.54	
2134.976	-3.86	
2137.6	-2.2	
2140.223	-2.2	
2142.843	-2.2	
2145.462	1.45	
2148.079	1.45	
2150.694	-1.53	
2153.307	-3.86	
2155.919	-4.52	
2158.528	-5.18	
2161.137	-1.2	
2163.743	-3.19	
2166.347	-0.87	
2168.95	-1.2	
2171.551	0.12	
2174.15	-3.19	
2176.748	-4.85	
2179.343	-0.21	
2181.937	0.79	
2184.529	-2.2	
2187.12	3.11	
2189.708	-2.53	
2192.295	0.12	
2194.88	0.12	
2197.464	-1.87	
2200.045	-4.19	
2202.625	-2.2	
2205.203	-1.87	
2207.78	-3.19	
2210.355	-0.87	
2212.928	-2.53	
2215.499	-1.2	
2218.068	-3.86	
2220.636	-0.87	
2223.202	0.12	
2225.766	-5.51	
2228.329	-1.2	
2230.889	-0.54	
2233.449	1.45	
2236.006	-0.21	
2238.562	-1.87	
2241.115	-4.85	
2243.668	-1.87	
2246.218	-1.2	
2248.767	-3.19	
2251.314	-0.87	
2253.859	-0.87	
2256.403	-5.51	
2258.945	-0.54	
2261.485	-1.2	
2264.023	-1.87	
2266.56	1.12	
2269.095	-1.2	
2271.629	-3.19	
2274.16	1.78	
2276.69	-1.87	
2279.219	-0.21	
2281.745	-1.53	
2284.27	-2.86	
2286.793	-0.54	
2289.315	-2.53	
2291.835	-1.87	
2294.353	0.46	
2296.869	1.12	
2299.384	1.78	
2301.897	1.78	
2304.408	-3.52	
2306.918	1.12	
2309.426	-1.87	
2311.932	0.12	
2314.437	0.46	
2316.94	-5.18	
2319.441	-1.2	
2321.941	-2.53	
2324.439	-0.21	
2326.935	-1.87	
2329.43	-1.87	
2331.923	-1.53	
2334.414	-3.19	
2336.904	-0.21	
2339.392	-1.87	
2341.878	-3.19	
2344.363	-3.86	
2346.846	7.09	
2349.328	-0.21	
2351.807	2.78	
2354.285	-2.86	
2356.762	-2.2	
2359.237	-0.21	
2361.71	-2.86	
2364.181	-2.2	
2366.651	-1.2	
2369.119	1.78	
2371.586	-4.85	
2374.051	0.79	
2376.514	-4.52	
2378.976	-2.2	
2381.436	-2.53	
2383.894	1.12	
2386.351	-0.54	
2388.806	-3.86	
2391.259	-2.2	
2393.711	-3.86	
2396.161	0.12	
2398.61	-4.52	
2401.057	-6.18	
2403.502	-1.53	
2405.946	-3.52	
2408.388	-8.17	
2410.829	-2.53	
2413.268	-3.19	
2415.705	-0.54	
2418.141	-4.52	
2420.575	-0.54	
2423.007	-4.85	
2425.438	-6.84	
2427.867	0.46	
2430.295	-2.86	
2432.721	2.11	
2435.145	-2.53	
2437.568	0.79	
2439.989	0.12	
2442.409	-2.53	
2444.827	-5.18	
2447.243	-1.53	
2449.658	-6.51	
2452.071	-4.52	
2454.483	0.79	
2456.893	-3.52	
2459.302	-0.87	
2461.709	-5.51	
2464.114	-7.84	
2466.518	-4.19	
2468.92	-0.87	
2471.32	-5.18	
2473.719	-3.52	
2476.117	-4.52	
2478.512	-4.52	
2480.907	-4.85	
2483.299	-2.86	
2485.691	-2.86	
2488.08	-4.52	
2490.468	-0.21	
2492.854	-2.86	
2495.239	-0.21	
2497.623	-7.84	
2500.004	1.45	
2502.384	-2.53	
2504.763	-1.87	
2507.14	-2.53	
2509.515	-3.86	
2511.889	-1.2	
2514.262	-0.54	
2516.633	-1.87	
2519.002	-5.51	
2521.369	-3.19	
2523.736	-3.52	
2526.1	-2.53	
2528.463	-3.86	
2530.825	-4.52	
2533.185	-5.51	
2535.543	-3.52	
2537.9	-3.52	
2540.255	-4.85	
2542.609	-3.19	
2544.961	-5.85	
2547.312	-4.85	
2549.661	-3.86	
2552.009	-3.19	
2554.355	-5.51	
2556.7	-5.85	
2559.043	-3.19	
2561.384	-1.2	
2563.724	-4.85	
2566.063	-5.51	
2568.4	-2.53	
2570.735	-3.19	
2573.069	-3.52	
2575.402	-3.19	
2577.733	-0.87	
2580.062	-5.85	
2582.39	-6.18	
2584.716	-6.18	
2587.041	-3.86	
2589.364	-6.84	
2591.686	-4.19	
2594.006	-5.18	
2596.325	-2.53	
2598.643	-5.85	
2600.958	-1.87	
2603.273	-1.87	
2605.585	-6.84	
2607.897	-2.86	
2610.206	-4.52	
2612.515	-6.18	
2614.822	-1.87	
2617.127	-6.18	
2619.431	-4.85	
2621.733	-4.52	
2624.034	-6.18	
2626.333	-4.19	
2628.631	-5.51	
2630.927	-4.52	
2633.222	-0.21	
2635.515	-5.51	
2637.807	-6.51	
2640.098	-5.18	
2642.387	-3.19	
2644.674	-7.5	
2646.96	-6.84	
2649.245	-3.52	
2651.528	-0.54	
2653.809	-3.19	
2656.089	-2.53	
2658.368	-2.86	
2660.645	-1.53	
2662.921	-3.52	
2665.195	-3.86	
2667.468	-4.19	
2669.739	-3.19	
2672.009	-2.2	
2674.277	-0.21	
2676.544	2.45	
2678.809	0.12	
2681.073	-5.18	
2683.336	-4.19	
2685.597	-5.51	
2687.856	2.78	
2690.115	-5.51	
2692.371	1.45	
2694.626	-1.53	
2696.88	-3.19	
2699.133	-5.85	
2701.383	1.45	
2703.633	4.77	
2705.881	3.44	
2708.127	-1.2	
2710.373	1.12	
2712.616	1.78	
2714.859	2.78	
2717.099	3.11	
2719.339	2.11	
2721.577	3.44	
2723.813	0.46	
2726.048	-0.54	
2728.282	2.45	
2730.514	2.11	
2732.745	2.45	
2734.974	2.45	
2737.202	4.77	
2739.428	3.77	
2741.653	3.77	
2743.877	4.1	
2746.099	4.44	
2748.32	3.11	
2750.539	0.12	
2752.757	-0.87	
2754.974	4.77	
2757.189	4.77	
2759.403	2.11	
2761.615	5.43	
2763.826	2.45	
2766.035	5.43	
2768.243	2.78	
2770.45	6.09	
2772.655	7.42	
2774.859	6.09	
2777.062	2.11	
2779.263	7.42	
2781.462	8.08	
2783.66	6.09	
2785.857	4.1	
2788.053	7.42	
2790.247	4.77	
2792.439	7.42	
2794.631	6.43	
2796.82	6.43	
2799.009	10.74	
2801.196	12.73	
2803.382	11.73	
2805.566	7.42	
2807.749	16.38	
2809.93	13.72	
2812.11	17.37	
2814.289	13.72	
2816.466	15.71	
2818.642	14.39	
2820.817	16.71	
2822.99	15.38	
2825.162	15.05	
2827.332	20.36	
2829.502	21.02	
2831.669	22.35	
2833.836	24.34	
2836	24.34	
2838.164	26.33	
2840.326	23.34	
2842.487	28.32	
2844.647	26.99	
2846.805	31.96	
2848.961	30.97	
2851.117	29.64	
2853.271	32.96	
2855.423	41.58	
2857.575	40.59	
2859.725	40.59	
2861.873	45.89	
2864.02	45.23	
2866.166	48.88	
2868.311	51.2	
2870.454	51.53	
2872.596	43.57	
2874.736	45.56	
2876.875	51.86	
2879.013	51.86	
2881.149	52.86	
2883.284	52.86	
2885.418	52.86	
2887.551	52.19	
2889.682	50.54	
2891.811	53.52	
2893.94	48.88	
2896.067	50.54	
2898.192	49.21	
2900.317	47.88	
2902.439	50.54	
2904.561	54.85	
2906.681	61.81	
2908.8	51.86	
2910.918	61.48	
2913.034	66.12	
2915.149	73.75	
2917.263	70.44	
2919.375	70.44	
2921.486	73.42	
2923.596	70.44	
2925.704	65.13	
2927.811	62.14	
2929.917	58.5	
2932.021	54.85	
2934.124	52.86	
2936.226	47.88	
2938.327	51.53	
2940.426	47.88	
2942.524	50.2	
2944.62	47.22	
2946.715	44.23	
2948.809	36.94	
2950.902	36.27	
2952.993	39.92	
2955.083	33.29	
2957.171	35.28	
2959.259	29.97	
2961.345	26.99	
2963.429	28.98	
2965.513	26.33	
2967.595	25.66	
2969.676	22.68	
2971.755	22.01	
2973.833	14.39	
2975.91	15.05	
2977.986	16.71	
2980.06	13.06	
2982.133	15.71	
2984.205	12.73	
2986.275	11.4	
2988.345	11.07	
2990.412	16.04	
2992.479	11.07	
2994.544	10.41	
2996.608	7.75	
2998.671	12.06	
3000.732	13.72	
3002.792	11.73	
3004.851	9.41	
3006.909	11.4	
3008.965	11.4	
3011.02	8.75	
3013.074	8.42	
3015.126	10.07	
3017.177	5.43	
3019.227	1.45	
3021.276	4.44	
3023.323	2.11	
3025.369	3.77	
3027.414	4.44	
3029.458	6.09	
3031.5	3.44	
3033.541	0.46	
3035.581	-2.2	
3037.619	0.12	
3039.656	3.44	
3041.692	0.46	
3043.727	1.12	
3045.76	-1.53	
3047.793	-0.21	
3049.824	0.12	
3051.853	-0.87	
3053.882	2.45	
3055.909	-0.54	
